Title: Chronicling the Host Galaxy Properties of the 
       Remarkable Repeating FRB 20201124A
Authors: Fong W.-F., Dong Y., Leja J., Bhandari S., Day C.K., Deller A.T., 
         Kumar P., Prochaska J.X., Scott D.R., Bannister K.W., Eftekhari T.,
         Gordon A.C., Heintz K.E., James C.W., Kilpatrick C.D., Mahony E.K.,
         Escorial A.R., Ryder S.D., Shannon R.M., Tejos N. 
Figure: MMT/Binospec spectroscopy of the putative host galaxy of FRB 20201124A
================================================================================
Byte-by-byte Description of file: dbf3.txt
--------------------------------------------------------------------------------
   Bytes Format Units          Label  Explanations
--------------------------------------------------------------------------------
   1- 10 F10.5  0.1nm          Wave   Wavelength; Angstroms
  12- 19 F8.5   10-16W/m2/nm   Flux   Flux; 1e-17 erg/s/cm^2^/A
  21- 27 F7.5   10-16W/m2/nm e_Flux   Uncertainty in Flux;  1e-17 erg/s/cm^2^/A
--------------------------------------------------------------------------------
3827.47790  0.36295 0.81770 
3828.76101  1.35330 0.83875 
3830.04413  1.05379 0.83769 
3831.32728  1.69807 0.84146 
3832.61045  1.42518 0.81949 
3833.89364  0.55202 0.81307 
3835.17685  1.10672 0.80395 
3836.46008 -0.40638 0.79358 
3837.74333  0.92497 0.79467 
3839.02660  2.05211 0.78373 
3840.30989  0.56349 0.77745 
3841.59320  0.08455 0.79661 
3842.87653  0.82182 0.83614 
3844.15989  0.27999 0.84066 
3845.44326  1.45531 0.85634 
3846.72665  1.36218 0.85735 
3848.01007  1.29510 0.84770 
3849.29351 -0.52059 0.82929 
3850.57696  2.05215 0.83388 
3851.86044  2.21801 0.84165 
3853.14394  2.41422 0.83963 
3854.42746 -0.40115 0.82184 
3855.71099  0.29233 0.82236 
3856.99455  1.23783 0.80359 
3858.27813  1.62511 0.79028 
3859.56173  2.78489 0.78342 
3860.84535 -0.04054 0.78042 
3862.12900  0.55936 0.79773 
3863.41266  1.43356 0.82834 
3864.69634 -0.17717 0.83163 
3865.98004  2.37979 0.83074 
3867.26377 -1.28570 0.81205 
3868.54751  0.84979 0.80826 
3869.83128  0.56291 0.78244 
3871.11506  0.59141 0.76508 
3872.39887  1.61918 0.77231 
3873.68269  1.59984 0.78636 
3875.60863 -0.36343 0.57975 
3877.53429  2.75749 0.80950 
3878.81820  2.57935 0.80678 
3880.10213  0.11540 0.77778 
3881.38608 -0.41033 0.78052 
3882.67005  0.82898 0.80157 
3883.95403  1.68736 0.80563 
3885.23804  1.71867 0.80562 
3886.52208  1.89487 0.81303 
3887.80613  1.46955 0.78362 
3889.09020  1.53050 0.78963 
3890.37429  0.11561 0.80325 
3891.65840  0.21857 0.81950 
3892.94253  2.21847 0.82802 
3894.22668  1.12440 0.83208 
3895.51086  0.18232 0.83865 
3896.79505  0.86838 0.84110 
3898.07926 -0.07132 0.83195 
3899.36350  0.12154 0.83315 
3900.64775  0.36559 0.82384 
3901.93203 -0.10567 0.83128 
3903.21632  0.99400 0.82626 
3904.50064  1.15767 0.82318 
3905.78497  1.71380 0.83737 
3907.06933  0.23220 0.85663 
3908.35370  1.47434 0.86542 
3909.63810  0.83246 0.88474 
3910.92252  2.07705 0.92424 
3912.20695  2.52413 0.98307 
3913.49141  1.53648 1.00641 
3914.77589  1.43395 0.96909 
3916.06039 -1.47564 0.91354 
3917.34490  2.76985 0.82656 
3918.62944  0.78313 0.77016 
3919.91400 -0.51785 0.75186 
3921.19858 -0.42324 0.73686 
3922.48318  0.51078 0.72904 
3923.76780  1.16865 0.73380 
3925.05244  1.62824 0.73789 
3926.33710  1.63043 0.70711 
3928.26448  0.66888 0.47233 
3930.19119  1.31191 0.63597 
3931.47593  0.57512 0.60260 
3932.76069  0.55236 0.57755 
3934.04547  1.77736 0.59042 
3935.33028  0.74289 0.57793 
3936.61510  1.24327 0.59965 
3937.89994  1.79939 0.63009 
3939.18480  1.07200 0.65789 
3940.46968  1.44881 0.68777 
3941.75458  2.04464 0.70875 
3943.03950  0.01250 0.69163 
3944.32444  1.13033 0.70291 
3945.60940  1.81852 0.70598 
3946.89438  1.70570 0.72899 
3948.17939  2.50058 0.73715 
3949.46441  1.44502 0.74178 
3950.74945  1.05921 0.73570 
3952.03451  0.14953 0.72331 
3953.31959  1.10030 0.73326 
3954.60469  2.33206 0.72412 
3955.88982  1.38387 0.72504 
3957.17496  2.38496 0.72801 
3958.46012  2.33127 0.72025 
3959.74530  1.23443 0.70553 
3961.03050  0.94857 0.68197 
3962.31573  0.60061 0.65831 
3963.60097  0.55380 0.62782 
3964.88623  0.70089 0.61826 
3966.17151  0.12427 0.57881 
3967.45682  1.09095 0.55749 
3968.74214 -0.13376 0.54134 
3970.03019 -5.51174 0.53101 
3971.31284 -0.27549 0.56663 
3972.59822  0.65898 0.59551 
3973.88363  0.99560 0.63422 
3975.16905  0.21043 0.65144 
3976.45449  0.90667 0.66882 
3977.73995 -0.07397 0.68743 
3979.02543  1.73975 0.70553 
3980.61971  0.75464 0.59272 
3982.36222  1.80381 0.56970 
3984.17026  3.60191 0.93283 
3985.45314  2.45084 0.71275 
3986.73875  1.45821 0.71150 
3988.02437  1.14835 0.71548 
3989.31001  0.55579 0.72680 
3990.59567  1.34126 0.73094 
3991.87940  3.10866 0.84320 
3993.16705  0.29022 0.72858 
3994.45277  0.85851 0.72865 
3995.73852  0.80266 0.71487 
3997.02428  1.20679 0.70742 
3998.31006  0.74602 0.71157 
3999.59586  0.96843 0.71791 
4000.88168  0.24412 0.72204 
4002.16752  2.63543 0.73042 
4003.45338  2.25486 0.72138 
4004.73926  1.30879 0.69981 
4006.02516  1.76497 0.69257 
4007.31108  0.81127 0.70203 
4008.59702  1.35903 0.70919 
4009.88298  1.71878 0.72500 
4011.16896  0.80678 0.72495 
4012.45496 -0.47800 0.71675 
4013.74098  0.53794 0.72039 
4015.02702  1.04205 0.71544 
4016.31308  2.47310 0.72028 
4017.59916  1.64291 0.71487 
4018.88526  1.85217 0.71865 
4020.17138  1.45823 0.72104 
4021.45752  1.44824 0.73020 
4022.74368  3.02167 0.73354 
4024.02985  0.49135 0.71134 
4025.31605  2.31353 0.71586 
4026.60227  0.95392 0.71585 
4027.88851 -0.15430 0.71287 
4029.17477  0.90723 0.70615 
4030.46104  1.86396 0.69140 
4031.74734  0.70240 0.67507 
4033.03366  0.78693 0.66481 
4034.32000  2.47802 0.67449 
4036.10407  1.70330 0.50778 
4037.83549  1.63782 0.63710 
4039.46554  3.19048 0.70804 
4040.75198  1.01068 0.70040 
4042.03843  0.90017 0.69649 
4043.32491  1.98003 0.69083 
4044.61140 -0.10961 0.69697 
4045.89792  0.85802 0.72590 
4047.18445  1.98635 0.73839 
4048.47101  0.40159 0.73657 
4049.75758  1.82176 0.72119 
4051.04418  2.75421 0.69482 
4052.33079  0.52495 0.68089 
4053.61742  0.93890 0.67225 
4054.90430  1.16685 0.64609 
4056.19095  0.89691 0.64619 
4057.47742  0.25555 0.62977 
4058.76392 -0.25634 0.62453 
4060.05018  2.35310 0.63927 
4061.33694  0.87707 0.63497 
4062.62384  1.60194 0.64009 
4063.91075  0.69538 0.63421 
4065.19801  1.36794 0.64179 
4066.48484  2.22593 0.65046 
4067.77169  1.72779 0.66729 
4069.05856  0.31478 0.66143 
4070.34545  1.20538 0.65799 
4071.63236  0.54695 0.64548 
4072.91929  0.87925 0.64400 
4074.20624  1.52401 0.64719 
4075.49320 -0.11118 0.64782 
4076.78019  1.60833 0.64777 
4078.06720  1.33094 0.63994 
4079.35422  0.90904 0.64081 
4080.64127  2.04796 0.66082 
4081.92834  1.12714 0.65815 
4083.21542  1.72713 0.64735 
4084.50253  0.41156 0.63564 
4085.78965  0.79821 0.64016 
4087.07679  2.02420 0.65063 
4088.36396  2.48315 0.66104 
4089.65114  3.25441 0.65862 
4090.93834  3.77933 0.66306 
4092.22556  3.74917 0.65695 
4094.24633 -1.29499 0.68175 
4096.08735  2.85229 0.63381 
4097.37465  1.32696 0.61892 
4098.66197 -0.02595 0.60901 
4099.94930  1.31061 0.59165 
4101.23666  1.44757 0.58248 
4102.52404  0.41896 0.56937 
4103.81144  0.96899 0.57836 
4105.09885  0.38908 0.59185 
4106.38629  1.08172 0.60407 
4107.67375  0.47991 0.61013 
4108.96122  0.88675 0.60810 
4110.24872  2.31511 0.62106 
4111.53623  1.06263 0.61772 
4112.82376  1.59301 0.62083 
4114.11131  0.22268 0.61941 
4115.39889  0.08534 0.62678 
4116.68648  1.20146 0.62364 
4117.97409  1.44780 0.61995 
4119.26172  0.66078 0.61364 
4120.54937 -0.24193 0.60963 
4121.83704 -0.16520 0.61522 
4123.12472  1.04228 0.62540 
4124.41243  1.09189 0.61818 
4125.70016  2.15136 0.61795 
4126.98790  1.27950 0.61282 
4128.27567  1.46008 0.61059 
4129.56346  0.68153 0.60485 
4130.85126  1.54639 0.59976 
4132.13908  1.74638 0.59653 
4133.42693  0.76434 0.58855 
4134.71479  1.37890 0.59564 
4136.00267  2.59429 0.60757 
4137.29057  0.52176 0.61300 
4138.57849  1.63035 0.61810 
4139.86643  0.77467 0.62097 
4141.15439  0.80099 0.61249 
4142.44236  2.30363 0.59899 
4143.73036  1.52530 0.58758 
4145.01838  2.36807 0.59251 
4146.30641  1.10511 0.59467 
4147.59447  2.54807 0.60206 
4148.88254  3.28111 0.60721 
4150.17063  1.27772 0.60078 
4152.10383  0.60759 0.41818 
4154.03503  2.31349 0.60633 
4155.32320  0.61412 0.58789 
4156.61139  1.29784 0.59148 
4157.89960  1.64675 0.59850 
4159.18782  1.83073 0.59402 
4160.47607  0.48193 0.60482 
4161.76434  0.46453 0.60357 
4163.05262  0.27121 0.61367 
4164.34093  0.16241 0.62273 
4165.62925  0.79167 0.61935 
4166.91759  1.37644 0.60941 
4168.20596  0.66406 0.60325 
4169.49434  1.86620 0.60709 
4170.78274  1.98703 0.59722 
4172.07116  0.93718 0.58240 
4173.35960  0.73828 0.57008 
4174.64805  0.79777 0.56945 
4175.93653  0.80611 0.57419 
4177.22503  0.87279 0.57873 
4178.51354  2.99915 0.58692 
4179.80208  1.65031 0.58522 
4181.09063  0.62556 0.57595 
4182.37921  2.84017 0.57764 
4183.66780  1.45832 0.57617 
4184.95641  1.34549 0.56997 
4186.24504 -0.06223 0.56180 
4187.53369  1.55683 0.56404 
4188.82236  1.61433 0.56606 
4190.11105  1.32703 0.56464 
4191.39975  0.76899 0.57355 
4192.68848  2.03441 0.58639 
4193.97722  1.57976 0.57126 
4195.26599  2.15977 0.57673 
4196.55477  0.92303 0.55739 
4197.84357  1.08948 0.55126 
4199.13240  1.34450 0.55596 
4200.42124  1.37970 0.55184 
4201.71010  1.99564 0.55563 
4202.99898  0.81356 0.54884 
4204.28787  1.54638 0.55606 
4205.57679  0.42863 0.55684 
4206.86573  1.75310 0.56902 
4208.15468  0.80213 0.57114 
4209.44366  0.26394 0.56702 
4211.07598  0.45705 0.46745 
4212.81152  0.80004 0.45103 
4214.59974  0.43177 0.55501 
4215.88881  1.24201 0.55788 
4217.17790  0.94599 0.55433 
4218.46701  1.75322 0.55777 
4219.75614  2.21425 0.56115 
4221.04528  1.80791 0.56367 
4222.33445  1.53661 0.55955 
4223.62363  1.57295 0.55118 
4224.91283  1.91504 0.53511 
4226.20206  1.45890 0.52145 
4227.49130  2.51151 0.52255 
4228.78056  1.53639 0.52961 
4230.06984  0.74431 0.55027 
4231.35913  1.79673 0.56793 
4232.64845  2.35512 0.56725 
4233.93779  0.69664 0.56447 
4235.22714  1.04615 0.55851 
4236.51652  1.61610 0.55227 
4237.80591  0.55945 0.54730 
4239.09532  2.47017 0.54626 
4240.38475  2.01071 0.54926 
4241.67420  1.83674 0.54560 
4242.96367  1.42636 0.54733 
4244.25316  2.29134 0.55624 
4245.54266  2.06616 0.56201 
4246.83219  2.26329 0.56072 
4248.12173  1.55640 0.55572 
4249.41129  1.31445 0.53642 
4250.70088  1.42696 0.54217 
4251.99048  1.50067 0.54373 
4253.28010  1.76784 0.55003 
4254.56974  1.49372 0.55616 
4255.85939  1.03861 0.54813 
4257.14907  1.55546 0.55178 
4258.43876  0.22715 0.54662 
4259.72848  1.46260 0.53501 
4261.01821  0.61772 0.53145 
4262.30796  1.20912 0.54157 
4263.59773  0.61735 0.54688 
4264.88752  1.74380 0.56031 
4266.17733  1.70045 0.56499 
4267.46716  1.33295 0.55704 
4268.75700  1.65002 0.55592 
4270.04687  1.58861 0.54072 
4271.33675  0.79579 0.52560 
4272.62665  0.39474 0.51730 
4274.56255  1.71712 0.38058 
4276.49647  1.21895 0.56496 
4277.78645  1.14448 0.56969 
4279.07645  0.97575 0.56012 
4280.36646  1.37532 0.54418 
4281.65650  1.59788 0.52415 
4282.94655  0.88759 0.53030 
4284.23662  0.42934 0.52630 
4285.52671  1.28914 0.52215 
4286.81682  1.16378 0.52069 
4288.10695  2.13589 0.51451 
4289.39709  2.09121 0.50986 
4290.68726  2.25506 0.50771 
4291.97744  1.84931 0.51630 
4293.26764  0.56657 0.52187 
4294.55786  1.70340 0.52809 
4295.84810  1.84595 0.52432 
4297.13836  2.04880 0.51021 
4298.42864  2.08366 0.49471 
4299.71893  0.71010 0.48265 
4301.00925  2.28244 0.48655 
4302.29958  2.39565 0.47865 
4303.58993  2.61588 0.48354 
4304.88030  1.14297 0.47825 
4306.17069  1.64826 0.47810 
4307.46110  1.93695 0.47402 
4308.75152  1.70236 0.47734 
4310.04197  1.71448 0.47224 
4311.33243  1.59100 0.48378 
4312.62291  0.35537 0.49825 
4313.91341  2.26468 0.51366 
4315.20393  1.47475 0.53184 
4316.49447  1.52971 0.54163 
4317.78502  0.93322 0.54807 
4319.07560  1.34714 0.54690 
4320.36619  0.35121 0.54273 
4321.65680  0.85785 0.53927 
4322.94743  0.98837 0.52373 
4324.23808  0.92002 0.50226 
4325.52875  2.59031 0.50173 
4326.81944  0.98308 0.50347 
4328.11014  0.78737 0.51614 
4329.40087  2.85431 0.53462 
4330.69161  2.77697 0.54138 
4331.98237  1.54829 0.53359 
4333.27315  1.08416 0.53045 
4334.56394  1.34037 0.53228 
4335.85476  1.62471 0.52856 
4337.14559  2.27219 0.51768 
4339.08297  1.92132 0.35309 
4341.01821  1.33483 0.49495 
4342.30912  1.17107 0.49081 
4343.60004  2.04032 0.50725 
4344.89099  2.72908 0.51649 
4346.18195  1.45576 0.52585 
4347.47294  0.92836 0.52955 
4348.76394  2.18281 0.53064 
4350.05496 -0.07754 0.52378 
4351.34599  1.70533 0.51228 
4352.63705  3.00230 0.51401 
4353.92812  1.16014 0.51087 
4355.21922  1.18508 0.53189 
4356.51033  2.00259 0.61493 
4357.80146  1.01946 0.67219 
4359.09261  1.79399 0.69559 
4360.38377  1.35610 0.66293 
4361.67496  1.64123 0.58854 
4362.96616  0.38924 0.54398 
4364.25739  1.47750 0.54134 
4365.54863  1.52455 0.53586 
4366.83989 -0.10061 0.53113 
4368.13116  1.87166 0.53542 
4369.42246  1.30201 0.52964 
4370.71377  1.86161 0.52938 
4372.00510  0.68607 0.53090 
4373.29646  2.61675 0.52909 
4374.58782  1.98028 0.52751 
4375.87921  2.27084 0.53114 
4377.17062  2.08490 0.52554 
4378.46204  2.38430 0.53722 
4379.75349  2.73450 0.53219 
4381.04495  2.95019 0.53172 
4382.33643  2.30836 0.50884 
4383.62792  2.26320 0.49715 
4384.91944  2.15923 0.49150 
4386.21097  1.05096 0.49569 
4387.50253  1.88983 0.51077 
4388.79410  2.08581 0.50901 
4390.08569  1.99007 0.51224 
4391.37729  1.01428 0.50439 
4392.66892  2.01423 0.51563 
4393.96056  1.29245 0.51050 
4395.25223  1.73434 0.51532 
4396.54391  1.07198 0.51255 
4397.83561  1.66058 0.52653 
4399.12732  2.07996 0.52660 
4400.41906  2.56287 0.52121 
4401.71081  1.10234 0.52246 
4403.00258  1.50245 0.51922 
4404.29437  1.74661 0.51494 
4406.23310  1.57434 0.36896 
4408.16985  1.73430 0.52919 
4409.46172  2.48696 0.53841 
4410.75360  2.77986 0.54587 
4412.04550  2.35315 0.55024 
4413.33742  2.21245 0.54375 
4414.62935  1.91558 0.54218 
4415.92131  1.60888 0.53596 
4417.21328  2.29357 0.53780 
4418.50527  1.55151 0.54257 
4419.79728  1.74636 0.54734 
4421.08931  2.43743 0.54528 
4422.38135  0.62774 0.53850 
4423.67342  2.83935 0.53995 
4424.96550  0.83344 0.53591 
4426.25760  1.16650 0.53565 
4427.54972  0.70809 0.53492 
4428.84185  1.93235 0.53478 
4430.13401  1.28316 0.53497 
4431.42618  2.99714 0.53830 
4432.71837  1.41624 0.52763 
4434.01058  1.87565 0.52875 
4435.30281  2.14951 0.52542 
4436.59505  2.27089 0.52857 
4437.88731  1.08712 0.53853 
4439.17960  1.75573 0.54118 
4440.47189  2.30225 0.53809 
4441.76421  2.33108 0.52994 
4443.05655  0.81167 0.51879 
4444.34890  0.84182 0.52534 
4445.64127  3.30621 0.53726 
4446.93366  2.12865 0.53970 
4448.22607  0.62082 0.53033 
4449.51850  2.49324 0.53129 
4450.81094  2.00127 0.53372 
4452.10340  2.20671 0.52980 
4453.39589  1.11629 0.51854 
4454.68838  2.15319 0.51685 
4455.98090  2.08508 0.51176 
4457.27344  2.29349 0.51224 
4458.56599  1.68194 0.51490 
4459.85856  0.96134 0.51277 
4461.15115  1.24106 0.51294 
4462.44375  1.89746 0.52067 
4463.73638  0.95797 0.51714 
4465.02902  2.01032 0.52782 
4466.32103  1.16906 0.51932 
4467.61370  1.24527 0.51217 
4468.90640  2.98247 0.51373 
4470.19897  1.86675 0.50790 
4471.49170  2.21296 0.51055 
4472.78470  1.10838 0.51666 
4474.07747  1.25934 0.51678 
4476.01759  2.55150 0.36945 
4477.95599  2.25302 0.51754 
4479.24894  0.82566 0.50936 
4480.54180  1.76519 0.50378 
4481.83468  0.72456 0.49948 
4483.12771  1.39401 0.50576 
4484.42083  2.70112 0.53442 
4485.71376  2.73773 0.53358 
4487.00670  1.48840 0.53680 
4488.29967  1.66758 0.52712 
4489.59266  3.05402 0.52940 
4490.88566  2.74555 0.52639 
4492.17868  2.14480 0.53245 
4493.47172  2.50502 0.52934 
4494.76477  1.89708 0.52727 
4496.05785  2.74234 0.53541 
4497.35094  1.55081 0.52632 
4498.64405  1.04941 0.52892 
4499.93718  1.56974 0.52872 
4501.23032  1.57169 0.52736 
4502.52349  2.33029 0.53083 
4503.81667  2.08446 0.53627 
4505.10987  1.78370 0.53802 
4506.40308  1.78766 0.53588 
4507.69632  0.60525 0.53194 
4508.98957  1.68798 0.53388 
4510.28284  1.92832 0.53716 
4511.57613  1.34493 0.53219 
4512.86944  1.85207 0.52850 
4514.16276  1.90893 0.52629 
4515.45610  1.37162 0.52491 
4516.74946  2.74436 0.52875 
4518.04284  1.56013 0.51969 
4519.33654 -0.96334 0.62264 
4520.62965  1.37679 0.52820 
4521.92308  2.47349 0.52929 
4523.21653  2.32426 0.52490 
4524.51000  1.37956 0.52074 
4525.80348  2.04451 0.52013 
4527.09698  2.27297 0.51301 
4528.39051  3.04761 0.51353 
4529.68404  1.37372 0.51221 
4530.97760  0.92020 0.50890 
4532.27117  1.63626 0.51327 
4533.56476  1.91018 0.51681 
4534.85837  1.85897 0.51049 
4536.15200  2.71849 0.52082 
4537.44564  1.96040 0.52581 
4538.73931  2.56590 0.52790 
4540.03299  1.42398 0.52269 
4541.32668  1.45092 0.52181 
4542.62040  1.71286 0.52410 
4543.91413  2.34791 0.52242 
4545.20788  2.69604 0.52259 
4546.50165  1.90363 0.51143 
4548.44330  1.69788 0.36163 
4550.38307  1.93671 0.50716 
4551.67691  1.64227 0.50682 
4552.97076  2.24216 0.51365 
4554.26464  2.51530 0.51140 
4555.55853  2.86646 0.51014 
4556.85244  2.53843 0.50954 
4558.14637  2.12855 0.51347 
4559.44032  2.76193 0.51616 
4560.73428  2.31740 0.51662 
4562.02826  3.04268 0.51715 
4563.32226  3.58311 0.51393 
4564.61628  1.96351 0.50614 
4565.91031  1.87452 0.50367 
4567.20436  2.22749 0.51027 
4568.49843  1.35612 0.50707 
4569.79252  1.76524 0.50883 
4571.08662  1.02940 0.50304 
4572.38075  2.13536 0.50492 
4573.67489  2.49460 0.50136 
4574.96904  2.77519 0.50413 
4576.26322  2.05055 0.51124 
4577.55741  2.69553 0.50530 
4578.85162  2.01411 0.50445 
4580.14585  2.26315 0.49915 
4581.44010  2.34569 0.49654 
4582.73436  2.54350 0.49634 
4584.02864  2.23893 0.49280 
4585.32294  2.40325 0.49278 
4586.61726  1.60052 0.49327 
4587.91159  1.67292 0.49515 
4589.20594  1.78806 0.49595 
4590.50031  2.26713 0.49693 
4591.79470  1.80814 0.49109 
4593.08911  2.12740 0.49683 
4594.38353  0.93388 0.48609 
4595.67797  2.68198 0.49415 
4596.97243  2.35639 0.48834 
4598.26690  2.26593 0.49056 
4599.56139  3.20948 0.48968 
4600.85590  1.08960 0.48189 
4602.15043  2.35512 0.48140 
4603.44498  2.47976 0.48033 
4604.73954  2.60120 0.48187 
4606.03412  2.57026 0.48326 
4607.32872  1.84529 0.48411 
4608.62333  0.87495 0.48495 
4609.91797  1.46567 0.48699 
4611.21262  1.78021 0.48958 
4612.50728  2.14154 0.48942 
4613.80197  1.53135 0.48500 
4615.09667  2.15332 0.48457 
4616.39139  1.68130 0.48212 
4617.68613  2.04576 0.48220 
4618.98089  2.61771 0.48575 
4620.27566  2.56024 0.48967 
4621.57045  2.18657 0.48701 
4622.86526  1.70167 0.48356 
4624.80843  2.01213 0.34136 
4626.74979  1.27517 0.48376 
4628.04467  3.24064 0.48292 
4629.33956  1.64466 0.47839 
4630.63448  3.08107 0.47977 
4631.92941  1.47205 0.47632 
4633.22436  3.15728 0.48143 
4634.51932  1.99844 0.48224 
4635.81431  2.49228 0.47446 
4637.10931  2.10226 0.47183 
4638.40433  3.02046 0.47626 
4639.69936  2.05452 0.46896 
4640.99441  2.66866 0.47545 
4642.28948  1.59965 0.47332 
4643.58457  3.26642 0.47676 
4644.87968  2.43229 0.47277 
4646.17480  1.77517 0.46829 
4647.46994  2.14961 0.46014 
4648.76510  2.71149 0.46740 
4650.06028  2.33279 0.47236 
4651.35547  2.92179 0.47642 
4652.65068  1.59732 0.47067 
4653.94591  2.09737 0.47220 
4655.24115  1.83003 0.46603 
4656.53641  1.93974 0.46952 
4657.83169  2.81180 0.48284 
4659.12699  2.69723 0.48975 
4660.42230  2.72184 0.48753 
4661.71764  1.97843 0.48238 
4663.01299  2.32693 0.48276 
4664.30835  2.72568 0.47475 
4665.60374  2.07041 0.45969 
4666.89914  1.36445 0.46037 
4668.19456  2.20348 0.46172 
4669.48999  2.01707 0.46277 
4670.78545  2.00441 0.47078 
4672.08092  2.17498 0.47140 
4673.37641  1.87031 0.47445 
4674.67191  2.35849 0.47156 
4675.96744  2.40755 0.47610 
4677.26298  2.23830 0.47091 
4678.55853  1.44676 0.46238 
4679.85411  1.41753 0.45980 
4681.14970  2.80348 0.46236 
4682.44531  2.27339 0.46224 
4683.74094  1.57394 0.46299 
4685.03658  2.10546 0.46457 
4686.33225  1.48810 0.45960 
4687.62793  1.86624 0.46223 
4688.92362  1.79881 0.45920 
4690.21934  2.19734 0.46310 
4691.51507  3.04153 0.46156 
4692.81082  1.79960 0.46071 
4694.10658  2.07540 0.46183 
4695.40236  1.59779 0.46109 
4696.69816  2.45686 0.46100 
4697.99398  1.42538 0.45654 
4699.28982  1.90634 0.45408 
4700.58567  1.42635 0.44767 
4701.88154  1.55530 0.44545 
4703.17742  1.27805 0.44432 
4705.12214  2.60430 0.32131 
4707.06519  2.19737 0.45452 
4708.36114  1.92796 0.45720 
4709.65712  1.86298 0.45688 
4710.95311  2.55482 0.45870 
4712.24911  1.59360 0.45139 
4713.54514  2.72380 0.45274 
4714.84118  2.27099 0.45392 
4716.13724  2.46985 0.45382 
4717.43332  2.42743 0.45544 
4718.72941  1.55492 0.45553 
4720.02552  2.43692 0.45731 
4721.32165  1.13069 0.45132 
4722.61779  1.69457 0.45718 
4723.91395  2.39255 0.45761 
4725.21013  2.84895 0.45710 
4726.50633  1.93977 0.45459 
4727.80254  2.56148 0.45242 
4729.09878  1.66250 0.44331 
4730.39502  1.66357 0.44539 
4731.69129  1.78114 0.44457 
4732.98757  1.83249 0.44825 
4734.28387  1.88844 0.44903 
4735.58019  2.41227 0.44638 
4736.87652  1.31411 0.44888 
4738.17287  2.14587 0.44987 
4739.46924  1.48934 0.45525 
4740.76563  1.93082 0.45680 
4742.06203  2.22477 0.45993 
4743.35845  2.07697 0.45956 
4744.65488  2.49443 0.45978 
4745.95134  1.38649 0.45454 
4747.24781  1.67281 0.44549 
4748.54430  1.97464 0.44152 
4749.84080  1.73440 0.44622 
4751.13732  2.02458 0.44496 
4752.43386  1.76919 0.44354 
4753.73042  1.85276 0.44256 
4755.02699  1.64856 0.43765 
4756.32358  1.25989 0.43376 
4757.62019  3.35153 0.43884 
4758.91681  0.96371 0.44002 
4760.21346  1.87248 0.43895 
4761.51012  2.24392 0.43565 
4762.80679  1.92222 0.43035 
4764.10348  2.37528 0.42894 
4765.40019  3.11284 0.43540 
4766.69692  3.21069 0.43318 
4767.99366  2.57312 0.43572 
4769.29042  2.05455 0.43442 
4770.58720  1.89715 0.43493 
4771.88400  2.09721 0.43311 
4773.18081  1.08497 0.42950 
4774.47764  1.89992 0.44037 
4775.77448  2.36253 0.43747 
4777.07135  3.11855 0.44940 
4778.36823  2.31757 0.45079 
4779.66512  2.52124 0.44390 
4780.96204  1.97153 0.44003 
4782.25897  1.84490 0.43661 
4783.55592  1.65537 0.43781 
4784.85288  1.87103 0.43470 
4786.14986  2.11347 0.43009 
4787.44686  2.27950 0.42681 
4789.39321  2.50886 0.30744 
4791.33796  3.83921 0.44320 
4792.63502  2.29192 0.43424 
4793.93211  2.31263 0.43749 
4795.22921  3.00350 0.44316 
4796.52632  1.89056 0.43560 
4797.82346  1.46515 0.42935 
4799.12061  2.43564 0.43324 
4800.41778  2.66055 0.42772 
4801.71496  2.03685 0.43219 
4803.01216  2.48045 0.43233 
4804.30938  2.61088 0.43570 
4805.60662  2.88998 0.43658 
4806.90387  1.70504 0.43164 
4808.20114  2.56259 0.42782 
4809.49843  2.83735 0.43403 
4810.79573  2.09405 0.43326 
4812.09305  3.09689 0.43493 
4813.39039  1.99930 0.43174 
4814.68774  2.45062 0.43622 
4815.98511  2.20941 0.43382 
4817.28250  2.18754 0.43734 
4818.57990  2.48124 0.44289 
4819.87732  2.18063 0.43660 
4821.17476  2.58858 0.44212 
4822.47221  2.63279 0.44021 
4823.76969  1.41897 0.43341 
4825.06717  2.89830 0.43526 
4826.36468  3.17934 0.44210 
4827.66220  0.97069 0.43499 
4828.95974  2.08527 0.43329 
4830.25730  1.93173 0.43237 
4831.55487  2.95012 0.43997 
4832.85246  3.39129 0.44384 
4834.15006  2.56746 0.43818 
4835.44769  2.38867 0.44004 
4836.74533  2.11620 0.43711 
4838.04298  2.48427 0.43723 
4839.34066  2.52152 0.43835 
4840.63835  3.21981 0.43756 
4841.93605  1.84438 0.43815 
4843.23378  2.75270 0.43195 
4844.53152  2.16652 0.42923 
4845.82928  2.04306 0.43553 
4847.12705  2.60031 0.43146 
4848.42484  2.39112 0.43299 
4849.72265  2.79848 0.42932 
4851.02047  2.15161 0.42818 
4852.31831  2.24019 0.43024 
4853.61617  2.50788 0.42557 
4854.91405  1.99959 0.41685 
4856.21194  2.49195 0.41595 
4857.51029  1.76244 0.39795 
4858.80843  2.19453 0.39853 
4860.10666  2.36190 0.40065 
4861.40462  2.66412 0.39635 
4862.70238  2.77293 0.40315 
4863.99964  3.06960 0.41651 
4865.29764  2.53843 0.41559 
4866.59567  2.70257 0.41865 
4867.89371  1.75578 0.41739 
4869.19177  1.29836 0.41718 
4870.48985  2.08109 0.41425 
4871.78794  1.68801 0.41214 
4873.08605  1.96907 0.41249 
4874.38417  2.26289 0.41790 
4875.68231  2.55881 0.41949 
4876.98047  2.16361 0.42237 
4878.92848  2.88960 0.30152 
4880.87505  1.98597 0.43037 
4882.17327  1.85094 0.42599 
4883.47152  1.84095 0.42274 
4884.76978  2.85814 0.42624 
4886.06805  1.74071 0.41875 
4887.36634  2.76296 0.41925 
4888.66465  2.57160 0.41631 
4889.96298  2.78065 0.41403 
4891.26132  2.98190 0.41674 
4892.55968  2.85760 0.41820 
4893.85805  2.29515 0.42310 
4895.15645  1.76566 0.42542 
4896.45486  3.24721 0.43502 
4897.75328  3.11827 0.43017 
4899.05172  2.39682 0.42579 
4900.35018  1.55238 0.42222 
4901.64866  2.39424 0.42415 
4902.94715  2.39798 0.42245 
4904.24568  1.57854 0.40678 
4905.54388  1.81424 0.40382 
4906.84242  2.19896 0.40204 
4908.14085  3.39549 0.40985 
4909.43986  3.00741 0.42409 
4910.73845  1.88133 0.41306 
4912.03706  3.24184 0.41991 
4913.33568  2.22206 0.42326 
4914.63432  2.86769 0.42346 
4915.93298  2.30193 0.42573 
4917.23166  2.39459 0.42311 
4918.53035  1.89428 0.40771 
4919.82905  2.65071 0.40119 
4921.12778  1.52419 0.40214 
4922.42652  2.48973 0.40955 
4923.72528  2.28915 0.41690 
4925.02405  2.05446 0.41692 
4926.32284  1.62110 0.41695 
4927.62165  2.72089 0.42305 
4928.92047  3.06746 0.42622 
4930.21931  2.49385 0.42322 
4931.51817  2.02333 0.42003 
4932.81704  3.11779 0.42260 
4934.11593  1.87098 0.41256 
4935.41484  2.25458 0.41499 
4936.71376  2.74819 0.41755 
4938.01270  2.71912 0.41909 
4939.31165  2.30906 0.41497 
4940.61063  2.28235 0.41287 
4941.90962  2.66883 0.41891 
4943.20862  3.28044 0.42652 
4944.50764  2.84791 0.41838 
4945.80668  2.40723 0.42323 
4947.10574  3.16631 0.42112 
4948.40481  3.13593 0.42369 
4949.70390  2.57727 0.42338 
4951.00300  1.81591 0.42256 
4952.30212  3.00505 0.42756 
4953.60126  2.72230 0.43052 
4954.90041  3.39209 0.42736 
4956.19958  2.46061 0.41651 
4957.49877  1.94734 0.40564 
4958.79797  2.32457 0.41131 
4960.09719  2.99741 0.41628 
4961.39643  2.98098 0.42311 
4962.69568  3.54483 0.42800 
4963.99495  2.23204 0.42411 
4965.29423  2.66728 0.42507 
4966.59354  2.57978 0.42303 
4967.89286  2.07713 0.41799 
4969.19219  2.20261 0.41997 
4970.49154  2.57003 0.42329 
4971.79091  2.59329 0.42962 
4973.63162  2.38069 0.32616 
4975.40278  2.06332 0.38100 
4976.98854  2.41938 0.43346 
4978.28799  2.48387 0.43345 
4979.58746  1.92282 0.43311 
4980.88694  2.11451 0.42388 
4982.18644  2.83646 0.42968 
4983.48596  2.10132 0.42172 
4984.78549  2.38960 0.42270 
4986.08504  2.34313 0.42771 
4987.38460  2.54246 0.42738 
4988.68418  3.35746 0.42807 
4989.98378  3.13459 0.43397 
4991.28340  2.62396 0.42699 
4992.58303  1.66652 0.41864 
4993.88267  2.60718 0.42494 
4995.18234  2.72162 0.42156 
4996.48201  2.63740 0.42281 
4997.78171  2.63127 0.41561 
4999.08142  2.42084 0.41244 
5000.38115  2.76615 0.41543 
5001.68090  2.40557 0.40756 
5002.98066  1.50598 0.40524 
5004.28043  3.03534 0.40869 
5005.58023  2.22888 0.40126 
5006.88004  2.74331 0.40494 
5008.17987  2.98118 0.40854 
5009.47971  2.75117 0.41091 
5010.77957  2.49824 0.40751 
5012.07944  2.16166 0.40286 
5013.37934  1.73208 0.39546 
5014.67924  2.71011 0.39895 
5015.97917  3.16041 0.40266 
5017.27911  2.30240 0.40055 
5018.57907  3.15237 0.41039 
5019.87904  2.22500 0.39960 
5021.17903  3.08593 0.40289 
5022.47904  2.93189 0.40200 
5023.77906  2.62302 0.40348 
5025.07910  2.92502 0.40142 
5026.37915  2.76189 0.40107 
5027.67922  1.88360 0.39252 
5028.97931  2.19918 0.40182 
5030.27941  2.14645 0.40267 
5031.57954  2.92616 0.41139 
5032.87967  2.78521 0.40850 
5034.17982  2.48682 0.40448 
5035.47999  2.56560 0.40371 
5036.78018  2.19340 0.39441 
5038.08038  2.46413 0.39705 
5039.38060  1.98404 0.39266 
5040.68083  3.38630 0.39556 
5041.98108  2.97683 0.39115 
5043.28135  2.49474 0.39100 
5044.58163  3.16576 0.40233 
5045.88193  1.94801 0.39777 
5047.18224  2.54964 0.40191 
5048.48258  3.10637 0.39966 
5049.78292  2.90171 0.39642 
5051.08329  3.18567 0.39640 
5052.38367  2.91721 0.39772 
5053.68406  2.82788 0.39416 
5054.98448  1.93815 0.39590 
5056.28491  2.42243 0.40405 
5057.58535  2.44301 0.40150 
5058.88581  3.02928 0.40686 
5060.18629  3.63112 0.40570 
5061.48678  1.69311 0.39800 
5062.78729  2.24999 0.40472 
5064.08782  1.67213 0.39982 
5065.38836  2.34846 0.39975 
5066.68892  2.31346 0.39750 
5067.98949  2.96455 0.40367 
5069.29008  3.06036 0.40859 
5070.59069  2.68849 0.40603 
5071.89131  2.30342 0.40413 
5073.19195  2.10383 0.39659 
5074.49261  2.82475 0.39875 
5076.32895  2.27760 0.30553 
5078.09744  2.87551 0.35186 
5079.69539  2.71302 0.39586 
5080.99612  2.34117 0.40089 
5082.29687  2.45032 0.40547 
5083.59764  3.16299 0.41448 
5084.89843  2.14900 0.41612 
5086.19923  3.75047 0.42025 
5087.50004  3.09212 0.41987 
5088.80088  1.91757 0.41052 
5090.10172  1.68877 0.40973 
5091.40259  2.89130 0.40128 
5092.70347  2.12490 0.40401 
5094.00437  3.27306 0.40877 
5095.30528  3.33269 0.40485 
5096.60621  3.28304 0.40600 
5097.90715  2.44869 0.39742 
5099.20811  2.91273 0.39892 
5100.50909  2.44124 0.40230 
5101.81008  2.48142 0.39980 
5103.11109  3.00092 0.40594 
5104.41212  1.91496 0.39730 
5105.71316  2.59925 0.39805 
5107.01422  2.85555 0.39659 
5108.31529  3.56355 0.40263 
5109.61638  3.06101 0.39872 
5110.91749  2.76811 0.39518 
5112.21861  2.09605 0.39519 
5113.51975  2.84001 0.40056 
5114.82090  3.26200 0.40330 
5116.12207  3.07624 0.40718 
5117.42326  2.41266 0.40268 
5118.72446  2.93286 0.40348 
5120.02568  2.77646 0.40414 
5121.32691  2.30438 0.39974 
5122.62816  2.99271 0.39969 
5123.92943  3.17431 0.39274 
5125.23071  3.52491 0.39256 
5126.53201  2.65881 0.39140 
5127.83332  2.58933 0.39049 
5129.13465  2.64136 0.39438 
5130.43600  2.58851 0.39293 
5131.73736  2.97777 0.39960 
5133.03874  2.75427 0.39836 
5134.34013  2.11161 0.39681 
5135.64154  3.34989 0.39982 
5136.94297  2.47817 0.39673 
5138.24441  2.62972 0.39283 
5139.54587  2.77006 0.39476 
5140.84734  2.50196 0.39064 
5142.14883  2.50774 0.39317 
5143.45034  2.73495 0.39918 
5144.75186  3.18284 0.39932 
5146.05340  2.64452 0.39880 
5147.35495  3.18050 0.40208 
5148.65652  2.64104 0.39975 
5149.95810  2.53358 0.39869 
5151.25971  2.37383 0.39774 
5152.56132  2.49981 0.39989 
5153.86296  3.09358 0.40592 
5155.16461  3.39916 0.40794 
5156.46627  2.83379 0.40203 
5157.76795  2.62743 0.39967 
5159.06965  2.65323 0.40130 
5160.37136  2.33177 0.39626 
5161.67309  2.97465 0.39856 
5162.97484  3.15755 0.39798 
5164.27660  2.70872 0.38914 
5165.57838  2.39970 0.38351 
5166.88017  2.20022 0.37108 
5168.18198  3.30244 0.37306 
5169.48380  2.62235 0.37736 
5170.78564  2.38279 0.37448 
5172.08750  3.24068 0.37178 
5173.38937  2.28782 0.36805 
5174.69126  2.89299 0.37613 
5175.99316  2.70832 0.38782 
5177.29508  3.09067 0.39837 
5178.59702  2.66159 0.39738 
5179.89897  2.40804 0.39234 
5181.20094  2.77289 0.38935 
5182.50292  3.26970 0.37531 
5183.80492  4.32492 0.37176 
5185.10694  2.48199 0.36795 
5186.40897  2.22233 0.38255 
5188.23901  2.40239 0.30204 
5190.00388  2.88418 0.34750 
5191.61725  3.08919 0.39458 
5192.91936  2.74765 0.38761 
5194.22149  2.45965 0.38900 
5195.52363  3.33826 0.40667 
5196.82579  3.39440 0.44414 
5198.12796  3.30892 0.46625 
5199.43015  3.21826 0.48623 
5200.73236  3.17688 0.46820 
5202.03458  3.36140 0.44236 
5203.33681  3.30018 0.42223 
5204.63907  2.83852 0.39769 
5205.94134  3.46091 0.39551 
5207.24362  2.79460 0.38682 
5208.54592  1.70474 0.38544 
5209.84824  2.60606 0.39210 
5211.15057  3.15461 0.40055 
5212.45292  2.85996 0.40046 
5213.75528  3.10687 0.40073 
5215.05766  3.40352 0.40077 
5216.36005  2.67495 0.39378 
5217.66247  2.71998 0.39397 
5218.96489  2.40220 0.39739 
5220.26733  2.54107 0.40126 
5221.56979  2.77176 0.40443 
5222.87227  3.65735 0.40928 
5224.17476  3.14518 0.40320 
5225.47726  3.47839 0.39747 
5226.77978  3.32024 0.39139 
5228.08232  2.99531 0.38541 
5229.38487  2.63169 0.38653 
5230.68744  2.82749 0.39352 
5231.99003  2.36290 0.39146 
5233.29263  2.77610 0.39021 
5234.59524  2.68543 0.38986 
5235.89787  3.08879 0.39279 
5237.20052  3.27585 0.40035 
5238.50319  2.89328 0.40606 
5239.80586  2.98233 0.41059 
5241.10856  2.22296 0.40250 
5242.41127  4.09439 0.40240 
5243.71400  2.95119 0.39691 
5245.01674  2.99022 0.39889 
5246.31949  2.26412 0.39031 
5247.62227  2.82527 0.39422 
5248.92506  2.73280 0.39391 
5250.22786  2.63781 0.39432 
5251.53068  3.17345 0.39418 
5252.83352  3.53110 0.39561 
5254.13637  2.47207 0.39164 
5255.43924  3.46641 0.40020 
5256.74212  2.31408 0.40337 
5258.04502  3.53922 0.40857 
5259.34793  3.25083 0.40455 
5260.65086  3.50028 0.39679 
5261.95381  3.55226 0.38934 
5263.25677  2.31030 0.38142 
5264.55975  2.87995 0.37128 
5265.86274  3.68777 0.37669 
5267.16575  3.73268 0.37742 
5268.46877  4.11637 0.37631 
5269.77181  2.30529 0.37206 
5271.07487  3.05529 0.37873 
5272.37794  3.45794 0.38012 
5273.68103  3.77637 0.39325 
5274.98413  2.81186 0.39166 
5276.28725  3.81756 0.39675 
5277.59038  4.23127 0.40108 
5278.89353  3.21482 0.39468 
5280.19669  3.61198 0.39078 
5281.49987  2.08190 0.38605 
5282.80307  2.93480 0.38529 
5284.10628  1.97633 0.38338 
5285.40951  3.60522 0.38791 
5286.71275  3.32247 0.39393 
5288.01601  2.58141 0.39326 
5289.31929  2.96870 0.39960 
5290.62258  3.10576 0.39533 
5291.92588  3.62126 0.40071 
5293.22920  2.40344 0.39456 
5294.53254  2.56377 0.39387 
5295.83589  3.00531 0.38782 
5297.13926  3.27173 0.38910 
5298.44264  2.51204 0.39142 
5299.74604  2.45983 0.38775 
5301.04946  3.51466 0.39278 
5302.35289  2.93594 0.38847 
5303.65633  2.83392 0.39575 
5304.95980  2.88919 0.39367 
5306.26327  2.52539 0.39323 
5307.56677  2.81712 0.39345 
5308.87027  2.84075 0.39698 
5310.17383  3.48181 0.39407 
5312.12958  3.09555 0.28025 
5314.08448  2.54109 0.39347 
5315.38807  2.04953 0.38766 
5316.69165  3.08262 0.38972 
5317.99527  2.71665 0.38584 
5319.29890  2.70762 0.39490 
5320.60255  2.20876 0.39220 
5321.90621  2.59648 0.39323 
5323.20989  3.23123 0.39045 
5324.51359  2.29508 0.38862 
5325.81730  3.21786 0.38905 
5327.12103  1.53777 0.37602 
5328.42477  3.26708 0.38238 
5329.72853  2.95443 0.38274 
5331.03230  3.58956 0.39156 
5332.33609  2.37397 0.39124 
5333.63989  3.25996 0.39341 
5334.94371  3.80038 0.39716 
5336.24754  5.83263 0.40338 
5337.55140  8.27913 0.42621 
5338.85526  9.43926 0.42677 
5340.15914  6.30965 0.40772 
5341.46304  5.11558 0.40062 
5342.76695  3.31130 0.38931 
5344.07088  2.97378 0.39444 
5345.37482  2.25502 0.38913 
5346.67878  3.06920 0.39027 
5347.98276  3.46221 0.39691 
5349.28675  3.26798 0.39755 
5350.59075  2.65378 0.39975 
5351.89477  2.37703 0.40033 
5353.19881  2.61585 0.39117 
5354.50286  2.41109 0.39725 
5355.80693  3.73294 0.40882 
5357.11101  3.36164 0.40519 
5358.41511  3.04255 0.40434 
5359.71923  2.45368 0.39784 
5361.02336  3.17782 0.39495 
5362.32750  3.14500 0.39548 
5363.63166  2.31441 0.38670 
5364.93584  2.80576 0.39122 
5366.24003  3.08661 0.39128 
5367.54424  3.06328 0.39158 
5368.84846  2.83624 0.38887 
5370.15270  2.92684 0.38498 
5371.45695  2.30426 0.38467 
5372.76122  3.48631 0.39089 
5374.06550  2.78686 0.39750 
5375.36980  3.40691 0.40267 
5376.67412  3.82246 0.40484 
5377.97845  3.53479 0.40668 
5379.28279  3.22477 0.39923 
5380.58715  3.31448 0.39748 
5381.89153  2.74313 0.39364 
5383.19592  3.75130 0.39498 
5384.50033  3.33921 0.39673 
5385.80475  3.55264 0.39605 
5387.10919  3.05287 0.39347 
5388.41365  2.91784 0.39834 
5389.71811  3.08006 0.39646 
5391.02260  3.54769 0.39547 
5392.32710  2.92050 0.39419 
5393.63162  2.75461 0.39427 
5394.93615  2.95075 0.39128 
5396.24069  3.25537 0.39164 
5397.54525  3.49196 0.39137 
5398.84983  3.08744 0.39193 
5400.15442  3.19657 0.39186 
5401.45903  3.56814 0.39544 
5402.76365  3.72436 0.39543 
5404.06829  2.79120 0.38997 
5405.37295  2.64041 0.38745 
5406.67762  3.25767 0.38681 
5407.98230  3.37596 0.39280 
5409.28700  3.72362 0.39814 
5410.59172  2.69997 0.39245 
5411.89645  3.45530 0.39914 
5413.20119  3.28876 0.40187 
5414.50596  3.36861 0.40151 
5415.81073  3.43645 0.40361 
5417.11552  3.09176 0.40455 
5418.42033  3.13570 0.40703 
5419.72516  2.45458 0.40332 
5421.02999  3.85657 0.40853 
5422.33485  3.72898 0.40339 
5423.63972  3.20254 0.39793 
5424.94460  3.18588 0.39924 
5426.24950  4.01710 0.40506 
5427.55442  2.83857 0.40116 
5428.85935  3.84816 0.40383 
5430.16429  3.41134 0.39937 
5431.46925  4.51666 0.40523 
5432.77423  3.30097 0.39966 
5434.07922  3.37402 0.39696 
5435.38423  3.14817 0.39841 
5436.68925  3.07958 0.39649 
5437.99429  3.18119 0.40367 
5439.29934  3.30473 0.40650 
5440.60441  2.78803 0.40364 
5441.90949  3.78431 0.41019 
5443.21459  3.94013 0.40679 
5444.51971  3.67273 0.40636 
5445.82484  4.32603 0.40809 
5447.12998  3.89329 0.40390 
5448.43514  4.11784 0.40643 
5450.07223  3.55502 0.35280 
5451.83413  3.85320 0.31837 
5453.65594  3.67342 0.40241 
5454.96117  3.26518 0.40027 
5456.26642  3.96860 0.40175 
5457.57169  3.84300 0.41022 
5458.87697  2.90158 0.44251 
5460.18227  3.32823 0.49096 
5461.48759  2.76549 0.49605 
5462.79291  3.19643 0.49236 
5464.09826  3.49470 0.44716 
5465.40362  3.22962 0.41344 
5466.70899  2.65898 0.40726 
5468.01438  2.96461 0.40583 
5469.31978  3.95207 0.40964 
5470.62520  2.88451 0.40279 
5471.93064  3.72059 0.40168 
5473.23609  2.95696 0.40430 
5474.54156  2.82393 0.39969 
5475.84704  3.38505 0.39932 
5477.15253  3.30062 0.39467 
5478.45804  4.02696 0.39542 
5479.76357  2.93832 0.39879 
5481.06911  3.22015 0.40009 
5482.37467  4.05052 0.40517 
5483.68024  2.41988 0.40045 
5484.98583  3.82615 0.41140 
5486.29160  3.41082 0.40310 
5487.59722  3.30526 0.40231 
5488.90286  4.11635 0.39857 
5490.20851  3.55787 0.39632 
5491.51417  3.79849 0.39938 
5492.81985  3.91142 0.40068 
5494.12584  3.79928 0.39823 
5495.43155  4.19779 0.39767 
5496.73727  4.82810 0.40403 
5498.04301  5.91938 0.41081 
5499.34877  4.90677 0.40964 
5500.65483  4.62707 0.39926 
5501.96062  3.91562 0.39528 
5503.26642  3.60106 0.39157 
5504.57252  3.59759 0.38754 
5505.87836  3.09732 0.38707 
5507.18420  3.44259 0.38494 
5508.49006  3.15292 0.38726 
5509.79594  3.80551 0.38956 
5511.10183  3.03189 0.38517 
5512.40777  3.59241 0.38923 
5513.71369  3.24327 0.38604 
5515.01962  3.14630 0.38849 
5516.32557  2.90228 0.39081 
5517.63154  3.92008 0.39250 
5518.93737  3.36576 0.39154 
5520.24337  2.65161 0.39633 
5521.54938  3.61347 0.39665 
5522.85562  3.44508 0.39246 
5524.16166  2.45291 0.38265 
5525.46736  3.00339 0.38687 
5526.77325  3.25917 0.39025 
5528.07874  3.47508 0.39836 
5529.38484  3.37325 0.39501 
5530.69096  3.84426 0.39560 
5531.99709  4.31789 0.39765 
5533.30324  3.46992 0.39474 
5534.60940  3.00228 0.39418 
5535.91558  2.76776 0.39074 
5537.22178  3.15863 0.39515 
5538.52798  3.09883 0.39317 
5539.83421  3.06781 0.39709 
5541.14045  4.06934 0.40618 
5542.44670  3.17343 0.40271 
5543.75297  3.82974 0.41347 
5545.05925  3.28244 0.41031 
5546.36555  3.00091 0.40721 
5547.67187  3.27266 0.39829 
5548.97820  4.31599 0.40613 
5550.28454  2.98397 0.40083 
5551.59090  3.94289 0.40471 
5552.89728  3.72338 0.40098 
5554.20367  3.75985 0.39934 
5555.51007  3.96134 0.40193 
5556.81649  3.54138 0.39672 
5558.12293  3.08207 0.40172 
5559.42938  4.49192 0.40342 
5560.73584  3.22759 0.39478 
5562.04232  3.80002 0.40496 
5563.34882  3.68602 0.40878 
5564.65533  3.00038 0.40937 
5565.96185  3.99473 0.41102 
5567.26839  3.04104 0.40112 
5568.57495  2.81415 0.39962 
5569.88152  3.52689 0.40044 
5571.18811  3.41110 0.40165 
5572.49471  3.80276 0.40339 
5573.80132  3.37882 0.41496 
5575.10731  2.24800 0.72620 
5576.41460  3.70520 1.16928 
5577.72126  5.81251 1.30351 
5579.02793  4.18452 1.28415 
5580.33463  2.70971 0.98766 
5581.64133  3.86281 0.50909 
5582.94805  3.74772 0.41468 
5584.25479  3.37696 0.39986 
5585.56154  3.60958 0.39740 
5586.86831  3.19611 0.39440 
5588.17509  4.18169 0.40336 
5589.48188  3.20274 0.40087 
5590.78869  3.96944 0.40288 
5592.09552  3.31146 0.39744 
5593.40236  4.01901 0.39294 
5594.70922  4.01333 0.39281 
5596.01609  3.42253 0.39402 
5597.32297  2.63750 0.39507 
5598.62988  3.44847 0.39560 
5599.93679  2.70171 0.39149 
5601.24372  3.22049 0.38982 
5602.55067  3.77682 0.39109 
5603.85763  3.70974 0.39988 
5605.16461  3.67047 0.40933 
5606.47160  3.73410 0.41303 
5607.77860  3.69498 0.40445 
5609.08563  4.05938 0.39810 
5610.39266  3.52077 0.39596 
5611.69971  3.42316 0.39760 
5613.50871  3.55846 0.30893 
5615.26637  3.77923 0.33052 
5616.92807  4.00448 0.39346 
5618.23519  2.71774 0.38827 
5619.54234  3.22369 0.39550 
5620.84949  3.92263 0.39297 
5622.15666  2.74795 0.39633 
5623.46385  3.38601 0.40062 
5624.77105  3.31949 0.40207 
5626.07827  3.43654 0.39679 
5627.38550  2.44871 0.39010 
5628.69274  3.32548 0.38902 
5630.00000  3.34509 0.39337 
5631.30728  2.94487 0.39039 
5632.61457  3.76066 0.39152 
5633.92188  3.75400 0.39506 
5635.22920  3.57855 0.39211 
5636.53653  3.66608 0.39008 
5637.84388  3.28056 0.38858 
5639.15125  3.28232 0.38965 
5640.45863  2.82607 0.39324 
5641.76603  2.84048 0.39087 
5643.07344  3.79653 0.39281 
5644.38086  3.14911 0.39346 
5645.68830  3.27484 0.39845 
5646.99576  3.30996 0.39748 
5648.30323  3.84706 0.39831 
5649.61071  3.87540 0.39308 
5650.91821  4.07044 0.39454 
5652.22573  3.77867 0.38957 
5653.53326  3.33129 0.39029 
5654.84080  3.43772 0.39208 
5656.14836  3.11183 0.38803 
5657.45594  3.28247 0.38877 
5658.76353  4.20219 0.39057 
5660.07113  4.31652 0.39158 
5661.37875  2.49882 0.38629 
5662.68639  3.53298 0.39135 
5663.99404  2.80713 0.39129 
5665.30114  4.01985 0.39465 
5666.60881  2.87313 0.38956 
5667.91651  2.76714 0.39127 
5669.22470  3.76116 0.40162 
5670.53251  4.00856 0.40659 
5671.84024  3.14628 0.41276 
5673.14827  3.53684 0.40471 
5674.45629  2.47311 0.39037 
5675.76434  2.29941 0.38286 
5677.07214  2.88736 0.38066 
5678.37987  2.63058 0.38245 
5679.68759  3.32103 0.38844 
5680.99544  2.90003 0.39738 
5682.30269  3.39633 0.41491 
5683.61056  3.96065 0.42654 
5684.91845  4.23687 0.43566 
5686.22635  4.13116 0.44253 
5687.53427  3.28723 0.44177 
5688.84220  3.52894 0.44781 
5690.15015  3.36096 0.44142 
5691.45811  3.75405 0.44189 
5692.76587  2.76535 0.41190 
5694.07105  2.29379 0.38003 
5695.37904  3.04791 0.37628 
5696.68731  2.77446 0.37546 
5697.99641  3.16118 0.38614 
5699.30618  2.81472 0.40744 
5700.61426  3.41222 0.40483 
5701.92234  3.04943 0.40431 
5703.23043  2.76124 0.39530 
5704.53854  4.24086 0.39797 
5705.84667  3.73557 0.39558 
5707.15481  4.11579 0.39745 
5708.46296  3.88667 0.39259 
5709.77113  3.75024 0.39473 
5711.07931  3.12231 0.39278 
5712.38751  4.21426 0.40020 
5713.69573  4.23670 0.39715 
5715.00395  4.68389 0.39513 
5716.31220  3.41865 0.39328 
5717.62045  3.34273 0.39395 
5718.92873  4.28619 0.39614 
5720.23621  3.17610 0.38628 
5721.54402  3.63504 0.37966 
5722.85234  2.99204 0.38122 
5724.16067  2.58252 0.37785 
5725.47031  3.21291 0.39391 
5726.77867  3.92923 0.39704 
5728.08705  2.88778 0.39326 
5729.39544  4.42236 0.39216 
5730.70385  3.49597 0.38765 
5732.01227  3.67840 0.39055 
5733.32070  3.00111 0.38877 
5734.62915  3.54676 0.38951 
5735.93762  3.21828 0.38666 
5737.24610  3.48067 0.39004 
5738.55459  3.14206 0.38587 
5739.86310  3.00340 0.38397 
5741.17163  3.00586 0.38237 
5742.48016  4.44588 0.39260 
5743.78872  3.53917 0.39056 
5745.09729  3.59346 0.38973 
5746.40587  3.62853 0.38775 
5747.71447  3.92710 0.38759 
5749.02308  3.47361 0.38489 
5750.33171  4.65866 0.39121 
5751.64035  3.32525 0.38763 
5752.94901  4.20374 0.38887 
5754.25768  3.74382 0.38428 
5755.56636  3.67387 0.38712 
5756.87506  3.76509 0.38713 
5758.18378  3.21260 0.39021 
5759.49251  3.88218 0.39183 
5760.80126  3.05426 0.38683 
5762.10933  4.44310 0.41875 
5763.41879  2.80947 0.38349 
5764.72758  2.62320 0.38749 
5766.03638  4.29402 0.39606 
5767.34520  3.67430 0.40149 
5768.65404  3.53748 0.40995 
5769.96289  4.60777 0.42130 
5771.27175  3.12905 0.41210 
5772.58063  3.43371 0.40489 
5773.88952  3.95114 0.39476 
5775.19843  3.51296 0.39208 
5776.50735  3.94355 0.39086 
5777.81628  3.09176 0.39025 
5779.12524  3.38958 0.38928 
5780.43420  3.64448 0.38640 
5781.74318  3.49049 0.38679 
5783.05218  3.13550 0.38399 
5784.36119  2.75848 0.37937 
5785.67021  3.89811 0.38885 
5786.97925  4.26496 0.39121 
5788.28831  4.29499 0.40210 
5789.59738  3.76337 0.40915 
5790.90646  4.73700 0.41924 
5792.21556  3.86292 0.41550 
5793.52467  4.15045 0.41049 
5794.83380  4.35645 0.40235 
5796.14294  4.23235 0.39544 
5797.45210  4.31083 0.39428 
5798.76127  4.06867 0.39433 
5800.07046  3.23745 0.38951 
5801.37966  3.33357 0.39398 
5802.68888  4.38662 0.40138 
5803.99811  4.27109 0.39899 
5805.30735  3.05218 0.39555 
5806.61661  3.90148 0.39458 
5807.92589  3.95492 0.39492 
5809.23518  4.06198 0.40018 
5810.54448  4.14195 0.39577 
5811.85380  3.78290 0.39882 
5813.16313  4.74047 0.40098 
5814.47248  4.06734 0.40167 
5816.09720  4.51510 0.35034 
5817.77558  3.91530 0.33312 
5819.44547  4.13347 0.36085 
5821.01944  3.97662 0.40528 
5822.32888  3.38034 0.40231 
5823.63833  4.57859 0.40942 
5824.94779  3.89467 0.40262 
5826.25727  3.89722 0.40690 
5827.56677  4.18687 0.40483 
5828.87628  4.21060 0.40542 
5830.18580  4.80206 0.40561 
5831.49534  3.86077 0.40626 
5832.80489  3.62002 0.40520 
5834.11446  3.40506 0.40778 
5835.42404  4.25294 0.40903 
5836.73364  4.13464 0.40773 
5838.04325  2.82308 0.40386 
5839.35288  4.05175 0.41020 
5840.66252  4.01474 0.40673 
5841.97217  2.73272 0.40280 
5843.28184  3.05746 0.40562 
5844.59153  4.18658 0.40915 
5845.90123  3.56043 0.40886 
5847.21094  4.53660 0.41047 
5848.52067  4.45330 0.41064 
5849.83042  3.66445 0.40570 
5851.14017  3.69275 0.40896 
5852.44995  4.01304 0.40628 
5853.75973  4.57999 0.40844 
5855.06954  3.08600 0.40710 
5856.37935  4.23650 0.40790 
5857.68918  5.39391 0.41163 
5858.99903  4.57199 0.40472 
5860.30889  3.13012 0.40657 
5861.61876  3.78010 0.40785 
5862.92865  4.15337 0.41372 
5864.23856  4.22737 0.42623 
5865.54848  3.21289 0.43654 
5866.85841  4.11295 0.45320 
5868.16836  4.04505 0.45802 
5869.47832  4.84696 0.44985 
5870.78830  3.95785 0.43401 
5872.09829  3.40886 0.42522 
5873.40829  4.84617 0.42536 
5874.71831  4.27563 0.42507 
5876.02835  4.33184 0.42191 
5877.33840  4.09266 0.42052 
5878.64846  4.50981 0.41601 
5879.95854  3.35471 0.41174 
5881.26864  4.29863 0.41195 
5882.57875  4.80680 0.41250 
5883.88887  4.18398 0.41520 
5885.19901  4.83205 0.41777 
5886.50916  3.43801 0.43683 
5887.81932  3.79704 0.53088 
5889.12951  3.97555 0.69586 
5890.43970  2.52696 0.74180 
5891.74991  3.16708 0.71972 
5893.06014  3.20175 0.60797 
5894.37038  3.12734 0.54323 
5895.68063  2.92139 0.60622 
5896.99090  2.85491 0.61648 
5898.30118  3.10212 0.58502 
5899.61148  2.74211 0.46905 
5900.92179  4.05854 0.41777 
5902.23212  4.20941 0.41799 
5903.54246  5.06068 0.42073 
5904.85281  3.25545 0.41713 
5906.16318  4.51195 0.43076 
5907.47357  4.01030 0.42538 
5908.78397  4.35097 0.42413 
5910.09438  4.07747 0.41683 
5911.40481  4.89658 0.41700 
5912.71525  3.85734 0.41525 
5914.02571  4.44728 0.43763 
5915.33618  4.63096 0.45071 
5916.64667  4.78169 0.45276 
5917.95717  4.67379 0.43946 
5919.26769  3.20694 0.41611 
5920.57822  3.68484 0.41515 
5921.88876  4.34020 0.41748 
5923.19932  4.54514 0.42287 
5924.50989  4.43569 0.42958 
5925.82048  3.96182 0.43062 
5927.13108  3.85831 0.42847 
5928.44170  3.84691 0.41992 
5929.75233  4.75070 0.41983 
5931.06298  4.17079 0.43071 
5932.37364  3.70706 0.45349 
5933.68432  4.01700 0.45894 
5934.99501  4.51032 0.45397 
5936.30571  3.73888 0.43118 
5937.61643  3.48392 0.41335 
5938.92716  4.05980 0.41584 
5940.23791  3.30556 0.40788 
5941.54867  3.61508 0.40902 
5942.85945  4.07702 0.40760 
5944.17024  3.60203 0.41327 
5945.48105  4.25548 0.42018 
5946.79187  3.50681 0.42040 
5948.10270  4.82456 0.42380 
5949.41355  4.40527 0.41482 
5950.72442  4.23036 0.40977 
5952.03529  4.34820 0.42456 
5953.34619  3.90258 0.44228 
5954.65709  3.10200 0.44060 
5955.96802  3.67218 0.43537 
5957.27895  3.73537 0.41191 
5958.58990  4.49712 0.40731 
5959.90087  4.04362 0.40569 
5961.21185  4.89244 0.40900 
5962.52284  4.30600 0.41120 
5963.83385  3.53293 0.40460 
5965.14488  4.67005 0.40654 
5966.45591  4.75004 0.40847 
5967.76697  3.16090 0.40236 
5969.07803  3.60699 0.40936 
5970.38911  3.67508 0.41201 
5971.70021  3.75577 0.41378 
5973.01132  5.39820 0.41677 
5974.32244  4.07791 0.40772 
5975.63358  4.37004 0.41709 
5976.94474  4.74037 0.42331 
5978.25590  3.54518 0.41982 
5979.56709  3.29485 0.41462 
5980.87828  4.08536 0.40530 
5982.18949  4.10597 0.40255 
5983.50072  3.97855 0.39728 
5984.81196  3.23545 0.39467 
5986.12322  3.57231 0.39522 
5987.43448  4.68395 0.39738 
5988.74577  4.06867 0.39572 
5990.05707  3.91807 0.39741 
5991.36838  3.49668 0.39759 
5992.67971  3.57670 0.39520 
5993.99105  3.23646 0.39288 
5995.30240  4.96922 0.40270 
5996.61377  3.92075 0.39801 
5997.92516  4.83230 0.40366 
5999.23656  4.13022 0.39682 
6000.54797  3.32340 0.39859 
6001.85940  4.01507 0.39576 
6003.17084  3.23695 0.39869 
6004.48230  3.81461 0.40265 
6005.79377  3.34298 0.40024 
6007.10526  4.22281 0.39620 
6008.41676  4.66803 0.39419 
6009.72827  4.99262 0.38969 
6011.03980  3.71728 0.38926 
6012.35135  3.83282 0.39061 
6013.66290  3.27273 0.38739 
6014.97448  4.60716 0.38626 
6016.28606  3.42740 0.38421 
6017.59767  4.51391 0.39133 
6018.90928  3.57584 0.38383 
6020.22091  3.89339 0.38639 
6021.53256  3.97220 0.38209 
6022.84422  4.32266 0.38510 
6024.15589  4.04142 0.38606 
6025.46758  4.07773 0.38696 
6026.77928  4.23340 0.38818 
6028.09100  4.48619 0.39147 
6029.40273  4.28028 0.38877 
6030.71447  3.85231 0.38594 
6032.02623  3.98098 0.38725 
6033.33801  4.46730 0.39003 
6034.64980  4.20216 0.39468 
6035.96160  5.03033 0.39379 
6037.27342  4.40122 0.39136 
6038.58525  4.59030 0.38651 
6039.89710  3.77910 0.38186 
6041.20896  3.50276 0.38085 
6042.52083  4.80565 0.38741 
6043.83272  4.18192 0.38476 
6045.14463  3.15344 0.38080 
6046.45654  4.23169 0.38458 
6047.76848  4.32638 0.37924 
6049.08042  2.66306 0.37853 
6050.39239  3.73617 0.38026 
6051.70436  4.31554 0.38233 
6053.01566  4.13816 0.41040 
6054.32836  7.69169 0.37910 
6055.64038  5.37445 0.38073 
6056.95241  4.64137 0.38331 
6058.26446  4.53227 0.38254 
6059.57652  4.00806 0.37957 
6060.88860  4.02449 0.38140 
6062.20069  4.51161 0.38332 
6063.51279  3.86774 0.38186 
6064.82491  3.03358 0.37569 
6066.13705  4.13534 0.38370 
6067.44920  4.52980 0.38235 
6068.76136  3.75240 0.38351 
6070.07354  4.22954 0.38186 
6071.38573  4.38261 0.38094 
6072.69793  4.04912 0.38182 
6074.01015  4.47258 0.38118 
6075.32239  5.13842 0.38278 
6076.63464  4.74991 0.37876 
6077.94690  3.83726 0.37991 
6079.25918  4.03644 0.37725 
6080.57147  4.46652 0.38011 
6081.88378  4.72490 0.37934 
6083.19610  4.45579 0.38149 
6084.50843  4.14368 0.38064 
6085.82078  4.47932 0.37594 
6087.13315  4.35240 0.37896 
6088.44553  4.10587 0.37738 
6089.75792  4.74240 0.38112 
6091.07033  4.47043 0.37743 
6092.38275  4.54884 0.37755 
6093.69518  4.04839 0.37830 
6095.00763  4.65472 0.38204 
6096.32010  3.80387 0.37812 
6097.63257  5.23607 0.38819 
6098.94507  4.29366 0.38235 
6100.25758  4.59277 0.38513 
6101.57010  4.63895 0.38267 
6102.88263  3.87046 0.38019 
6104.19518  3.39757 0.38032 
6105.50775  4.45457 0.38676 
6106.82033  4.81858 0.39058 
6108.13292  4.97919 0.39145 
6109.44553  4.02975 0.39185 
6110.75815  4.33217 0.39481 
6112.07079  3.64298 0.39953 
6113.38344  4.69861 0.40927 
6114.69610  4.59175 0.40504 
6116.00878  3.94402 0.40139 
6117.32147  4.12273 0.39884 
6118.63418  3.44075 0.38901 
6119.94690  4.59806 0.39161 
6121.25964  4.89269 0.38582 
6122.89653  4.58643 0.33217 
6124.52134  4.08133 0.33323 
6126.08133  4.73645 0.35575 
6127.56842  3.85895 0.33996 
6129.13636  4.08969 0.38091 
6130.44920  4.89115 0.38081 
6131.76205  4.98120 0.38225 
6133.07491  3.69557 0.37559 
6134.38779  3.81937 0.38030 
6135.70068  3.75081 0.37731 
6137.01359  3.81677 0.37661 
6138.32651  4.27817 0.38397 
6139.63945  4.10306 0.38467 
6140.95240  4.78830 0.38667 
6142.26537  4.52878 0.38702 
6143.57835  3.37936 0.38587 
6144.89134  3.78129 0.39034 
6146.20435  4.18764 0.38893 
6147.51737  4.03012 0.38347 
6148.83041  4.06112 0.37935 
6150.14346  4.43241 0.38089 
6151.45652  3.46161 0.37626 
6152.76960  3.92987 0.38077 
6154.08270  4.53774 0.38719 
6155.39581  5.06421 0.38751 
6156.70893  4.61544 0.38313 
6158.02206  4.96806 0.37999 
6159.33522  4.00369 0.38078 
6160.64838  3.77526 0.38235 
6161.96156  4.37926 0.38627 
6163.27475  4.75249 0.38101 
6164.58796  4.94615 0.37588 
6165.90118  4.46526 0.36899 
6167.21442  4.01866 0.37289 
6168.52767  3.78103 0.37224 
6169.84094  3.96707 0.38456 
6171.15422  4.28975 0.39323 
6172.46751  4.13246 0.39639 
6173.78082  3.95444 0.38494 
6175.09414  4.31916 0.37689 
6176.40748  4.77966 0.37675 
6177.72083  3.62274 0.37359 
6179.03419  3.28733 0.36951 
6180.34757  4.59328 0.37010 
6181.66097  4.91274 0.37073 
6182.97438  4.06682 0.37003 
6184.28780  4.18609 0.37378 
6185.60123  3.70756 0.37171 
6186.91468  4.60089 0.37409 
6188.22815  4.11902 0.36849 
6189.54163  3.98919 0.36651 
6190.85512  4.52815 0.36823 
6192.16796  3.86428 0.38881 
6193.48215  4.94573 0.37271 
6194.79569  4.62418 0.37459 
6196.10924  3.90256 0.37333 
6197.42280  3.64314 0.36960 
6198.73638  4.58937 0.36973 
6200.04998  4.69368 0.36720 
6201.36359  3.93364 0.37324 
6202.67721  3.85997 0.38470 
6203.99084  4.11164 0.38798 
6205.30449  5.08582 0.38894 
6206.61816  3.73966 0.37167 
6207.93184  4.45554 0.37271 
6209.24553  3.99209 0.36890 
6210.55924  4.31240 0.37666 
6211.87296  4.52696 0.37651 
6213.18670  4.23640 0.37800 
6214.50045  4.08696 0.37369 
6215.81421  4.15759 0.37064 
6217.12799  4.16409 0.36698 
6218.44178  4.32624 0.36477 
6219.75559  4.11025 0.36903 
6221.06941  4.58883 0.38489 
6222.38325  4.18193 0.38894 
6223.69710  4.55470 0.39033 
6225.01096  4.09983 0.37786 
6226.32484  3.49755 0.36751 
6227.63873  3.75629 0.36223 
6228.95264  4.14476 0.36442 
6230.26656  4.30306 0.36472 
6231.58050  4.44732 0.36635 
6232.89445  4.36367 0.37625 
6234.20841  5.22093 0.41073 
6235.52239  4.75506 0.44498 
6236.83638  4.45958 0.45682 
6238.15039  3.79179 0.44524 
6239.46441  4.48087 0.42312 
6240.77844  4.71110 0.39859 
6242.09249  4.63182 0.40304 
6243.40656  3.57107 0.39668 
6244.72063  4.91549 0.39193 
6246.03473  4.33577 0.38174 
6247.34883  4.40202 0.37350 
6248.66295  4.56227 0.36738 
6249.97709  4.44605 0.37332 
6251.29124  4.48340 0.36655 
6252.60540  4.21840 0.36306 
6253.91958  4.37624 0.36286 
6255.23377  4.59264 0.36747 
6256.54797  5.00830 0.39871 
6257.86219  4.53625 0.44024 
6259.17643  4.66363 0.44602 
6260.49068  5.10088 0.43799 
6261.80494  3.80524 0.39517 
6263.11922  4.00607 0.37634 
6264.43351  3.86362 0.38420 
6265.74781  4.46927 0.39374 
6267.06213  4.23392 0.39594 
6268.37647  4.69244 0.38822 
6269.69081  4.75661 0.37582 
6271.00518  3.44955 0.36985 
6272.31955  4.42359 0.36672 
6273.63394  4.41386 0.37135 
6274.94835  5.03911 0.37470 
6276.26277  4.42785 0.37500 
6277.57720  4.05667 0.38090 
6278.89165  4.32204 0.38173 
6280.20611  4.02894 0.37304 
6281.52059  4.40319 0.37176 
6282.83508  4.61062 0.36806 
6284.14958  3.75684 0.36509 
6285.46410  3.86166 0.37744 
6286.77863  3.21524 0.40903 
6288.09318  3.96184 0.42910 
6289.40774  4.42411 0.42924 
6290.72231  4.69423 0.41047 
6292.03690  3.08263 0.37421 
6293.35151  4.84409 0.36706 
6294.66612  4.43766 0.37035 
6295.98076  4.29780 0.38407 
6297.29540  4.48937 0.43505 
6298.61006  4.25693 0.76435 
6299.92474  6.93916 1.19728 
6301.23943  7.14041 1.32354 
6302.55413  4.22526 1.26136 
6303.86885  3.94401 0.91172 
6305.18358  3.48986 0.48220 
6306.49832  3.73556 0.43885 
6307.81308  4.94061 0.45515 
6309.12786  4.92449 0.44735 
6310.44264  4.62060 0.40579 
6311.75745  4.27327 0.37304 
6313.07226  4.19529 0.36653 
6314.38709  4.77297 0.36381 
6315.70194  4.55436 0.36115 
6317.01680  4.37996 0.35939 
6318.33167  4.74773 0.36129 
6319.64656  4.03311 0.36342 
6320.96146  4.82786 0.37939 
6322.27637  4.49547 0.38738 
6323.59130  3.98466 0.38162 
6324.90625  4.48734 0.37468 
6326.22121  4.17202 0.36411 
6327.53618  4.76921 0.37220 
6328.85116  4.14034 0.40120 
6330.16616  4.59487 0.42523 
6331.48118  5.29341 0.42867 
6332.79621  4.85656 0.41283 
6334.11125  4.90006 0.37485 
6335.42631  4.79876 0.36062 
6336.74138  4.13920 0.35449 
6338.05647  4.02383 0.35830 
6339.37157  5.11212 0.35968 
6340.68668  5.34265 0.36286 
6342.00181  3.22699 0.35567 
6343.31695  4.14890 0.36312 
6348.57766  4.81763 0.37867 
6349.89287  4.24947 0.37533 
6351.20810  3.88936 0.37580 
6352.52334  3.74107 0.36389 
6353.83860  3.63531 0.35907 
6355.15387  4.56942 0.38259 
6356.46915  4.88834 0.40013 
6357.78445  3.95370 0.39995 
6359.09976  4.41986 0.39795 
6360.41508  4.01492 0.37647 
6361.73042  4.27027 0.46181 
6363.04578  4.55377 0.66505 
6364.36115  4.19553 0.77090 
6365.67653  5.47055 0.77328 
6366.99193  3.97214 0.64954 
6368.30734  6.01808 0.44056 
6369.62276  4.72549 0.36729 
6370.93820  4.60860 0.36162 
6372.25366  4.66825 0.36046 
6373.56912  4.05429 0.35983 
6374.88460  5.18685 0.36207 
6376.20010  4.04405 0.35927 
6377.51561  3.34812 0.36104 
6378.83113  4.48369 0.36885 
6380.14667  4.63952 0.37239 
6381.46222  4.54528 0.37051 
6382.77779  5.41847 0.37162 
6384.09337  4.46451 0.36489 
6385.40897  4.18497 0.37404 
6386.72458  4.22820 0.38157 
6388.04020  4.28153 0.38218 
6389.35584  4.67915 0.37778 
6390.67149  5.32197 0.36687 
6391.98715  4.57869 0.35804 
6393.30283  4.85861 0.36175 
6394.61852  5.01358 0.36037 
6395.93423  4.98235 0.36193 
6397.24995  3.70774 0.35473 
6398.56569  4.40827 0.35730 
6399.88144  4.09692 0.35543 
6401.19720  4.39363 0.35718 
6402.51298  5.40003 0.36051 
6403.82877  4.99069 0.36232 
6405.14458  4.90787 0.36219 
6406.46040  4.38395 0.36182 
6407.77624  4.52992 0.35357 
6409.09209  4.66614 0.35586 
6410.40795  4.37149 0.35475 
6411.72383  4.82437 0.35923 
6413.03972  4.29578 0.35987 
6414.35562  5.34966 0.36550 
6415.67154  3.40219 0.35658 
6416.98748  5.09375 0.36317 
6418.30342  4.90939 0.35839 
6419.61939  4.34893 0.36256 
6420.93536  5.08749 0.36374 
6422.25135  4.77711 0.36218 
6423.56736  5.07798 0.36292 
6424.88909  0.59177 0.53539 
6426.19941  3.75141 0.34961 
6427.51545  4.16478 0.35453 
6428.83151  5.04614 0.35821 
6430.14759  5.07938 0.35717 
6431.46368  4.04425 0.35148 
6432.77978  3.86105 0.35273 
6434.09590  4.59966 0.35382 
6435.41203  4.05011 0.35243 
6436.72817  4.17736 0.35691 
6438.04433  4.17492 0.35522 
6439.36051  4.70202 0.35068 
6440.67669  5.53518 0.35350 
6441.99290  4.53170 0.35590 
6443.30911  4.37680 0.35447 
6444.62534  4.20187 0.35621 
6445.94159  4.87720 0.35876 
6447.25784  4.91636 0.35661 
6448.57412  4.70279 0.35732 
6449.89040  4.69786 0.36078 
6451.20670  6.16535 0.36146 
6452.52302  5.42239 0.36351 
6453.83935  6.11367 0.36851 
6455.15569  4.79681 0.36104 
6456.47205  4.76603 0.35760 
6457.78842  4.21543 0.35621 
6459.10480  5.00553 0.36286 
6460.42120  4.60598 0.36007 
6461.73762  4.66818 0.35877 
6463.05404  4.11550 0.36653 
6464.37049  4.82693 0.38590 
6465.68694  4.55764 0.39972 
6467.00341  4.90982 0.40292 
6468.31989  3.13521 0.38994 
6469.63639  4.07390 0.39023 
6470.95290  4.46756 0.39560 
6472.26943  3.48945 0.39022 
6473.58597  4.57085 0.38997 
6474.90253  3.74724 0.36455 
6476.21909  3.87425 0.35011 
6477.53568  4.39380 0.36093 
6478.85227  5.09828 0.36822 
6480.16888  4.70564 0.36607 
6481.48551  3.66276 0.35424 
6482.80215  4.42955 0.34953 
6484.11880  4.32366 0.35022 
6485.43547  4.61979 0.35248 
6486.75215  4.72627 0.35186 
6488.06884  5.20646 0.35864 
6489.38555  4.89172 0.35624 
6490.70228  4.50462 0.35005 
6492.01902  4.03240 0.35107 
6493.33577  3.95329 0.35339 
6494.65253  4.67388 0.35222 
6495.96931  5.26300 0.35982 
6497.28611  4.44540 0.39118 
6498.60291  4.42481 0.43453 
6499.91974  3.89384 0.44553 
6501.23657  5.51472 0.43871 
6502.55342  3.95924 0.39488 
6503.87029  5.74902 0.38281 
6505.18717  5.00680 0.39024 
6506.50406  4.69204 0.39121 
6507.82097  4.35587 0.38362 
6509.13789  5.08399 0.36923 
6510.45482  4.31928 0.35422 
6511.77177  4.88520 0.35924 
6513.08873  4.98697 0.36465 
6514.40571  4.95355 0.36648 
6515.72270  4.51652 0.35860 
6517.03971  4.75845 0.36246 
6518.35673  4.90578 0.35600 
6519.67376  3.97516 0.35462 
6520.99081  4.49085 0.35940 
6522.30735  5.13634 0.39419 
6523.62494  5.74149 0.38340 
6524.94203  4.57851 0.37698 
6526.25914  4.90436 0.36721 
6527.57626  4.99304 0.35987 
6528.89339  4.42963 0.35655 
6530.21053  4.76908 0.36048 
6531.52769  4.84286 0.38402 
6532.84487  4.40766 0.41893 
6534.16206  5.12618 0.43199 
6535.47926  3.76372 0.42377 
6536.79647  4.67047 0.38857 
6538.11371  4.58662 0.35880 
6539.43095  4.64601 0.36073 
6540.74821  5.68577 0.36194 
6542.06548  4.15223 0.36526 
6543.38277  5.64811 0.38355 
6544.70007  4.62006 0.38789 
6546.01738  5.40937 0.38955 
6547.33471  5.16794 0.37571 
6548.65206  3.96137 0.35768 
6549.96941  5.13992 0.35845 
6551.28679  4.99312 0.36884 
6552.60417  4.41940 0.40613 
6553.92157  4.27365 0.43469 
6555.23898  4.23857 0.43527 
6556.55823 -4.50783 0.49726 
6557.87385  5.67527 0.37520 
6559.19131  4.72147 0.34964 
6560.50878  4.84238 0.35827 
6561.82626  4.79809 0.39550 
6563.14376  4.95108 0.42931 
6564.46127  4.37911 0.43798 
6565.77880  5.36271 0.42300 
6567.09634  4.87193 0.38133 
6568.41389  3.94910 0.36498 
6569.73146  4.84273 0.37691 
6571.04904  5.10168 0.37843 
6572.36664  5.10002 0.36358 
6573.68425  4.56129 0.35543 
6575.00188  4.48352 0.36180 
6576.31951  4.70608 0.38768 
6577.63717  4.21311 0.41135 
6578.95483  3.72548 0.41701 
6580.27252  5.69152 0.41084 
6581.59021  4.60895 0.37296 
6582.90792  4.72141 0.36090 
6584.22564  4.41669 0.36319 
6585.54338  4.86868 0.36451 
6586.86113  4.54295 0.35841 
6588.17890  4.34543 0.35717 
6589.49668  5.83026 0.36259 
6590.81447  4.25595 0.35452 
6592.13228  4.77277 0.35603 
6593.45010  4.95061 0.35501 
6594.76794  4.70709 0.35862 
6596.08579  4.47154 0.35834 
6597.40365  3.99527 0.36802 
6598.72153  4.43109 0.36801 
6600.03942  4.63026 0.36396 
6601.35733  4.87978 0.35851 
6602.67525  4.26112 0.36661 
6603.99318  5.43683 0.38847 
6605.31113  5.08344 0.39228 
6606.62909  5.38754 0.38821 
6607.94707  4.72295 0.36902 
6609.26506  4.97243 0.35349 
6610.58306  4.76413 0.35424 
6611.90108  5.15917 0.35710 
6613.21728  4.43508 0.40197 
6614.53716  5.03366 0.35023 
6615.85522  4.78092 0.35594 
6617.17330  4.47707 0.35278 
6618.49139  5.22487 0.35676 
6619.80949  5.63393 0.35906 
6621.12761  5.39412 0.35796 
6622.44574  5.40065 0.35475 
6623.76389  4.82840 0.35467 
6625.08205  5.11357 0.35869 
6626.40022  4.80081 0.35939 
6627.71841  5.02920 0.36165 
6629.03661  5.26464 0.36511 
6630.35482  4.87348 0.36245 
6631.67305  5.24602 0.36315 
6632.99130  5.19720 0.36231 
6634.30956  5.33276 0.36472 
6635.62783  4.17869 0.36655 
6636.94611  5.28833 0.37022 
6638.26442  4.89619 0.36069 
6639.58273  5.51223 0.35563 
6640.90106  4.87549 0.35550 
6642.21940  5.03458 0.35711 
6643.53776  5.12246 0.35216 
6644.85613  4.98411 0.35426 
6646.17451  4.27005 0.35372 
6647.49291  4.80925 0.35278 
6648.81132  5.16285 0.35535 
6650.12975  5.23542 0.36080 
6651.44819  4.45722 0.35700 
6652.76665  5.18997 0.35655 
6654.08512  5.14815 0.35676 
6655.40360  5.00479 0.35500 
6656.72210  4.98357 0.35427 
6658.04061  4.58172 0.35441 
6659.35913  5.18521 0.35931 
6660.67998  6.67553 0.45474 
6661.99623  4.95386 0.35844 
6663.31479  4.16788 0.35442 
6664.63337  5.00220 0.35396 
6665.95197  5.08801 0.35826 
6667.27058  5.49857 0.36425 
6668.58920  4.87753 0.36283 
6669.90784  5.71218 0.36328 
6671.22649  5.23669 0.36158 
6672.54516  4.21494 0.35522 
6673.86384  5.06005 0.35339 
6675.18253  5.22747 0.35775 
6676.50124  4.74366 0.35584 
6677.81996  4.71269 0.34986 
6679.13870  4.65002 0.35403 
6680.45745  4.50958 0.35273 
6681.77621  4.87868 0.35452 
6683.09499  5.01765 0.35653 
6684.41379  5.32797 0.35731 
6685.73259  5.09278 0.35596 
6687.05141  4.76130 0.35543 
6688.37025  5.13986 0.35715 
6689.68910  4.94567 0.35421 
6691.00796  5.51825 0.35964 
6692.32684  5.40584 0.35972 
6693.64573  4.11414 0.35302 
6694.96463  5.00499 0.35571 
6696.28355  5.27960 0.35518 
6697.60248  5.30519 0.35750 
6698.92143  5.09081 0.36009 
6700.24039  4.38289 0.35938 
6701.55937  5.32555 0.36452 
6702.87836  5.73902 0.36417 
6704.19736  4.89405 0.35803 
6705.51638  5.58977 0.36505 
6706.83541  5.09089 0.36254 
6708.15446  4.82862 0.36295 
6709.47352  5.82195 0.36469 
6710.79259  5.34653 0.35883 
6712.11168  4.98506 0.35945 
6713.43078  4.40855 0.35332 
6714.74989  4.82818 0.35553 
6716.06902  5.03426 0.35808 
6717.38817  5.17105 0.36046 
6718.70733  5.16116 0.36404 
6720.02650  4.97225 0.35657 
6721.34569  5.49971 0.35713 
6722.66489  5.15311 0.35707 
6723.98410  5.14520 0.35839 
6725.30333  5.15996 0.35735 
6726.62257  5.26922 0.35777 
6727.94183  5.14699 0.35682 
6729.26110  5.04920 0.35498 
6730.58038  4.65008 0.35582 
6731.89968  5.67175 0.36336 
6733.21899  4.92028 0.36065 
6734.53832  5.21909 0.35838 
6735.85766  4.85417 0.35819 
6737.17702  4.79147 0.35444 
6738.49639  5.03244 0.35355 
6739.81577  5.20182 0.35532 
6741.13517  4.81548 0.35745 
6742.45458  5.66109 0.36174 
6743.77400  5.21963 0.36381 
6745.09344  5.22667 0.36176 
6746.41290  4.82863 0.35682 
6747.73236  5.71187 0.36002 
6749.05185  5.53610 0.35599 
6750.37134  5.40786 0.35694 
6751.69085  5.25848 0.35453 
6753.01037  5.21626 0.35490 
6754.32991  5.13861 0.35503 
6755.64946  5.43056 0.35748 
6756.96903  5.37182 0.35181 
6758.28861  4.83327 0.35464 
6759.60820  4.71164 0.35382 
6760.92781  5.56376 0.35703 
6762.24744  5.33557 0.35734 
6763.56707  4.82165 0.35431 
6764.88672  5.01647 0.35500 
6766.20639  5.22422 0.35418 
6767.52607  4.73781 0.35136 
6768.84576  4.79271 0.34898 
6770.16546  4.73338 0.35313 
6771.48519  4.87319 0.35345 
6772.80492  4.46569 0.35282 
6774.12467  5.04456 0.35450 
6775.44443  5.36801 0.35775 
6776.76421  5.60985 0.35504 
6778.08400  6.01837 0.35864 
6779.40381  5.02169 0.35575 
6780.72317  5.18289 0.36966 
6782.04346  4.65158 0.35244 
6783.36331  4.86686 0.35631 
6784.68317  5.33083 0.35530 
6786.00304  4.98640 0.35382 
6787.32293  5.28750 0.35376 
6788.64284  5.13894 0.35766 
6789.96275  5.64589 0.35835 
6791.28269  4.93740 0.35790 
6792.60263  4.54353 0.35119 
6793.92259  5.23650 0.35348 
6795.24257  5.51071 0.35474 
6796.56255  3.91706 0.34889 
6797.88256  4.89777 0.35372 
6799.20257  4.59655 0.35293 
6800.52260  4.57643 0.35148 
6801.84265  4.86695 0.35378 
6803.16271  4.69840 0.35218 
6804.48278  4.88786 0.35258 
6805.80287  5.21258 0.35851 
6807.12297  5.93014 0.35547 
6808.44308  5.00385 0.35670 
6809.76321  4.97863 0.35167 
6811.08335  4.71604 0.35279 
6812.40351  4.86326 0.35515 
6813.72368  4.17530 0.35152 
6815.04387  4.92669 0.35437 
6816.36407  5.38551 0.35298 
6817.68428  5.11550 0.35861 
6819.00451  5.01673 0.35423 
6820.32475  5.02886 0.35527 
6821.64501  5.76357 0.35719 
6822.96528  4.65235 0.35114 
6824.28556  5.21570 0.35694 
6825.60586  4.98405 0.36371 
6826.92617  5.43986 0.39788 
6828.24650  4.94349 0.44461 
6829.56684  6.05895 0.49355 
6830.88719  4.30260 0.49196 
6832.20756  4.94551 0.47564 
6833.52794  4.51359 0.46736 
6834.84834  5.28723 0.47866 
6836.16875  5.02644 0.47423 
6837.48917  5.79572 0.44332 
6838.80961  4.86708 0.38132 
6840.13007  5.05904 0.36804 
6841.45053  5.05272 0.37858 
6842.77101  5.73360 0.39007 
6844.09151  4.86845 0.38593 
6845.41202  4.83871 0.36798 
6846.73254  5.43836 0.35608 
6848.05308  5.91675 0.35772 
6849.37363  4.25873 0.35139 
6850.69420  5.71644 0.35831 
6852.01478  5.47270 0.36055 
6853.33281  5.52606 0.42085 
6854.27082  5.30197 0.35563 
6855.39493  4.96740 0.43699 
6855.97894  5.11402 0.44676 
6857.29724  5.59709 0.35553 
6858.61789  5.93205 0.35580 
6859.93855  4.64476 0.35679 
6861.25923  4.61793 0.37282 
6862.57992  5.54570 0.45106 
6863.90063  5.45091 0.54187 
6865.22135  4.54160 0.57078 
6866.54208  5.40884 0.56385 
6867.86283  4.53956 0.48213 
6869.18360  5.57462 0.41549 
6870.50437  5.42066 0.44535 
6871.82516  4.54728 0.44869 
6873.14597  5.16365 0.44294 
6874.46679  5.04555 0.42129 
6875.78762  4.96067 0.38908 
6877.10847  5.34305 0.38786 
6878.42933  4.59369 0.37364 
6879.75021  5.07056 0.38440 
6881.07110  5.62421 0.39491 
6882.39200  4.94367 0.39131 
6883.71292  5.09397 0.38677 
6885.03385  4.46419 0.37266 
6886.35480  4.75792 0.36564 
6887.67576  5.28363 0.38328 
6888.99673  4.98178 0.41202 
6890.31772  5.15409 0.42868 
6891.63872  4.90613 0.42657 
6892.95974  6.23184 0.41105 
6894.28077  4.30183 0.37598 
6895.60182  5.68098 0.37343 
6896.92288  4.80952 0.37077 
6898.24395  5.27994 0.37297 
6899.56504  4.65041 0.39074 
6900.88614  5.23570 0.41381 
6902.20725  5.91355 0.42741 
6903.52838  4.46920 0.40594 
6904.84953  4.41456 0.38054 
6906.17068  5.09288 0.36409 
6907.49186  4.80813 0.35544 
6908.81304  4.77914 0.35981 
6910.13424  5.24911 0.36540 
6911.45546  5.79212 0.39749 
6912.77668  5.31725 0.42485 
6914.09793  4.17967 0.43374 
6915.41918  5.19419 0.42518 
6916.74045  5.82232 0.38288 
6918.06174  6.62721 0.36264 
6919.38304  6.20163 0.36303 
6920.70435  5.76433 0.37442 
6922.02568  6.13349 0.42019 
6923.34702  5.44850 0.47242 
6924.66837  5.38806 0.48983 
6925.98974  5.75772 0.46859 
6927.31113  5.04243 0.40318 
6928.63252  5.48457 0.36152 
6929.95394  4.69138 0.35453 
6931.27536  4.72371 0.35443 
6932.59680  5.16970 0.35506 
6933.91826  5.45403 0.35536 
6935.23972  5.49085 0.35359 
6936.56121  5.21721 0.35501 
6937.88270  4.73601 0.37445 
6939.20421  5.64272 0.40550 
6940.52574  5.10250 0.42012 
6941.84728  6.15678 0.42062 
6943.16883  6.19926 0.39368 
6944.49040  4.52970 0.36164 
6945.81198  5.55768 0.36015 
6947.13357  5.57054 0.38542 
6948.45518  5.07699 0.45605 
6949.77680  5.73114 0.49705 
6951.09844  6.06787 0.49817 
6952.42009  5.35750 0.45422 
6953.74176  5.20241 0.38157 
6955.06344  5.13620 0.36135 
6956.38513  5.42914 0.35982 
6957.70684  5.35569 0.36196 
6959.02856  5.69196 0.36242 
6960.35030  5.26323 0.35979 
6961.67205  5.14567 0.36060 
6962.99382  5.00667 0.35710 
6964.31559  5.00643 0.35763 
6965.63739  5.48498 0.36279 
6966.95919  5.10909 0.36101 
6968.28101  4.90757 0.37275 
6969.60285  4.58228 0.39105 
6970.92470  5.42681 0.39831 
6972.24656  4.73672 0.39644 
6973.56844  5.72639 0.38392 
6974.89033  5.49600 0.36317 
6976.21224  5.09858 0.36853 
6977.53416  5.51820 0.40909 
6978.85609  4.85979 0.43771 
6980.17804  5.42018 0.44815 
6981.50000  4.98195 0.42200 
6982.82198  5.71172 0.38052 
6984.14397  4.81926 0.35642 
6985.46597  4.96203 0.35967 
6986.78799  5.32931 0.36244 
6988.11002  6.14622 0.36287 
6989.43207  6.09916 0.36309 
6990.75413  5.50049 0.36200 
6992.07621  5.55738 0.35737 
6993.39830  4.97679 0.35756 
6994.72104  5.55862 0.35589 
6996.04321  5.01884 0.35200 
6997.36534  5.43219 0.35624 
6998.68727  5.50378 0.35983 
7000.00943  5.58397 0.35509 
7001.33113  5.13820 0.36243 
7002.65332  5.44674 0.36941 
7003.97552  5.67513 0.37715 
7005.29774  5.49261 0.38320 
7006.61997  5.41979 0.37201 
7007.94221  5.23488 0.36241 
7009.26447  5.52688 0.36077 
7010.58675  5.25359 0.37756 
7011.90939  4.57602 0.39441 
7013.23205  5.88760 0.39293 
7014.55437  5.51020 0.38112 
7015.87670  4.61631 0.35322 
7017.19868  5.35023 0.35005 
7018.52104  5.46392 0.35105 
7019.84306  5.73316 0.35313 
7021.16544  5.82757 0.35654 
7022.48784  5.90700 0.35528 
7023.81025  5.01867 0.35432 
7025.13268  5.62231 0.35030 
7026.45513  5.26728 0.35073 
7027.77758  5.22000 0.35004 
7029.10005  5.47073 0.35658 
7030.42254  5.42593 0.35647 
7031.74504  5.69887 0.36350 
7033.06755  5.82319 0.36161 
7034.39008  5.05565 0.35852 
7035.71262  5.48196 0.35708 
7037.03518  5.16642 0.35336 
7038.35775  5.99811 0.35393 
7039.68033  5.55548 0.35594 
7041.00293  5.88169 0.36685 
7042.32554  5.07816 0.36738 
7043.64817  4.75383 0.36843 
7044.97081  6.49061 0.37137 
7046.29347  5.80087 0.37318 
7047.61613  5.59949 0.38401 
7048.93882  5.16106 0.39312 
7050.26152  5.34131 0.39812 
7051.58423  4.66519 0.38316 
7052.90695  5.73870 0.37718 
7054.22969  6.11972 0.37587 
7055.55245  5.39186 0.36492 
7056.87521  5.69028 0.36163 
7058.19800  6.06891 0.36204 
7059.52079  5.62662 0.35928 
7060.84360  4.71070 0.35486 
7062.16643  5.19870 0.36284 
7063.48927  5.64746 0.36492 
7064.81212  5.17979 0.36554 
7066.13499  5.16536 0.37049 
7067.45787  5.78476 0.37216 
7068.78077  5.18590 0.36591 
7070.10367  5.91488 0.37084 
7071.42660  5.21952 0.36660 
7072.74954  5.41491 0.36776 
7074.07249  5.91446 0.36724 
7075.39546  5.79082 0.36721 
7076.71844  5.26919 0.36366 
7078.04143  5.41028 0.36699 
7079.36444  5.95543 0.36623 
7080.68746  5.55511 0.36668 
7082.01050  5.25711 0.36939 
7083.33312  5.63179 0.38308 
7084.65662  5.52216 0.36750 
7085.97970  5.21948 0.36497 
7087.30279  5.94413 0.37378 
7088.62590  5.80644 0.37138 
7089.94902  5.26292 0.37718 
7091.27216  5.80479 0.37676 
7092.59531  5.99159 0.37197 
7093.91847  5.87077 0.36583 
7095.24165  5.45480 0.36202 
7096.56484  5.78614 0.36091 
7097.88805  5.04727 0.35747 
7099.21127  6.49747 0.35962 
7100.53451  5.02264 0.35923 
7101.85776  5.39340 0.36049 
7103.18102  5.84051 0.35822 
7104.50430  5.28755 0.36204 
7105.82759  6.16892 0.36176 
7107.15090  4.84239 0.35898 
7108.47422  5.59026 0.35691 
7109.79755  5.49480 0.35792 
7111.12090  4.62270 0.35374 
7112.44427  5.48688 0.35907 
7113.76764  5.04334 0.35640 
7115.09103  6.50265 0.36120 
7116.41444  5.54236 0.35952 
7117.73786  5.95113 0.35918 
7119.06129  5.24398 0.35834 
7120.38474  5.70941 0.36037 
7121.70820  5.30405 0.35481 
7123.03168  6.28600 0.35972 
7124.35517  4.81354 0.35503 
7125.67868  5.50719 0.36482 
7127.00220  6.35226 0.36780 
7128.32573  5.36236 0.36598 
7129.64928  5.07954 0.36333 
7130.97284  5.53769 0.36033 
7132.29641  4.69776 0.35980 
7133.62000  5.65464 0.36678 
7134.94361  5.05374 0.36303 
7136.26723  5.10298 0.36352 
7137.59086  4.99580 0.35398 
7138.91451  5.10691 0.35550 
7140.23817  5.20608 0.35414 
7141.56184  5.46363 0.36357 
7142.88553  5.99750 0.36810 
7144.20924  5.00741 0.37094 
7145.53295  6.07874 0.37535 
7146.85669  5.91197 0.37865 
7148.18043  4.87517 0.36972 
7149.50419  5.30736 0.36294 
7150.82797  5.03592 0.36125 
7152.15176  4.83216 0.35709 
7153.47556  5.52020 0.35953 
7154.79938  5.39703 0.35510 
7156.12321  5.78140 0.35823 
7157.44706  5.04713 0.35419 
7158.77092  6.32436 0.36583 
7160.09479  5.67148 0.36023 
7161.41868  5.74920 0.36460 
7162.74258  5.26474 0.36048 
7164.06650  6.25342 0.36249 
7165.39043  5.69209 0.36077 
7166.71180  4.99547 0.42137 
7167.45845  5.10024 0.43994 
7168.04068  6.42023 0.45597 
7169.36231  6.32603 0.36414 
7170.68630  5.65203 0.35612 
7172.01030  5.10624 0.36044 
7173.33432  5.57870 0.36132 
7174.65835  5.60745 0.36273 
7175.98239  4.62453 0.35839 
7177.30645  4.79306 0.36163 
7178.63053  5.02256 0.36367 
7179.95461  5.37499 0.36484 
7181.27872  5.59487 0.36258 
7182.60283  6.32676 0.36490 
7183.92696  4.91840 0.36448 
7185.25111  5.36039 0.36313 
7186.57527  5.78812 0.36480 
7187.89944  7.24715 0.37302 
7189.22363  9.54444 0.38466 
7190.54783 11.87706 0.39544 
7191.87205 10.87582 0.39395 
7193.19628  9.43540 0.38233 
7194.52052  7.18543 0.36789 
7195.84478  6.16832 0.36106 
7197.16905  5.72787 0.35287 
7198.49334  5.76123 0.35411 
7199.81764  5.40398 0.35300 
7201.14196  6.51472 0.36559 
7202.46629  9.63435 0.38144 
7203.79063 17.74440 0.39146 
7205.11499 35.70420 0.45353 
7206.43936 54.40621 0.53416 
7207.76375 61.12485 0.61201 
7209.08815 50.36239 0.54703 
7210.41257 31.11711 0.38895 
7211.73700 16.17231 0.39504 
7213.06144  8.48681 0.36334 
7214.38590  5.60306 0.35354 
7215.71037  5.17460 0.34956 
7217.03486  5.12522 0.35016 
7218.35936  5.08883 0.34506 
7219.68388  5.06038 0.35136 
7221.00841  5.55833 0.35209 
7222.33295  5.45941 0.35895 
7223.65751  5.49419 0.35926 
7224.98218  6.67035 0.36603 
7226.30626  9.29957 0.39458 
7227.63143 15.05316 0.39252 
7228.95583 21.82428 0.57562 
7230.28065 24.72648 0.45983 
7231.60516 22.82165 0.44706 
7232.92982 16.01316 0.40425 
7234.25450  8.84032 0.38149 
7235.57918  6.75625 0.38029 
7236.90388  4.63966 0.38563 
7238.22860  4.59298 0.45600 
7239.55333  6.55898 0.57169 
7240.87808  4.37129 0.64800 
7242.20283  3.04743 0.65302 
7243.52761  6.07906 0.64003 
7244.85239  4.84105 0.64809 
7246.17720  6.39453 0.64267 
7247.50201  7.25370 0.62276 
7248.82643  7.59672 0.55500 
7250.15169  4.81678 0.40492 
7251.47655  5.22306 0.38499 
7252.80142  5.63003 0.41406 
7254.12631  5.72444 0.43694 
7255.45121  6.02308 0.44530 
7256.77613  4.98811 0.41694 
7258.10106  5.72121 0.38257 
7259.42600  5.72357 0.36956 
7260.75096  5.42619 0.36178 
7262.07593  5.16418 0.35561 
7263.40092  5.55158 0.36144 
7264.72592  4.77399 0.35896 
7266.05094  4.98531 0.36149 
7267.37597  5.92395 0.37308 
7268.70102  5.66914 0.38014 
7270.02608  6.02683 0.38151 
7271.35115  5.45111 0.37660 
7272.67624  6.14205 0.37533 
7274.00134  5.80405 0.42320 
7275.32646  4.31698 0.57638 
7276.65159  4.91935 0.73728 
7277.97673  6.14585 0.77134 
7279.30189  5.95149 0.69766 
7280.62707  5.32349 0.50970 
7281.95226  5.54216 0.39445 
7283.27562  4.22385 0.50071 
7284.60226  5.85296 0.54167 
7285.92791  6.64566 0.53489 
7287.25315  5.23692 0.51205 
7288.57841  6.20572 0.43528 
7289.90369  5.87500 0.37535 
7291.22898  5.46162 0.36402 
7292.55428  5.01892 0.36526 
7293.87960  5.58492 0.36772 
7295.20493  4.95667 0.39004 
7296.53028  4.09895 0.41253 
7297.85564  5.16850 0.41351 
7299.18101  5.73401 0.40073 
7300.50640  4.85206 0.36355 
7301.83181  5.51084 0.37378 
7303.15722  5.54226 0.42498 
7304.48266  5.02959 0.46298 
7305.80810  5.31174 0.46836 
7307.13356  5.92618 0.43614 
7308.45904  5.03869 0.37688 
7309.78453  5.85813 0.37014 
7311.11003  4.95148 0.36493 
7312.43555  5.43402 0.36753 
7313.76109  4.35610 0.38851 
7315.08663  5.47963 0.50099 
7316.41220  5.91983 0.63309 
7317.73777  6.03450 0.67022 
7319.06336  3.94432 0.64164 
7320.38897  6.30561 0.51092 
7321.71459  6.17717 0.39251 
7323.04022  5.99158 0.37291 
7324.36587  5.09451 0.35582 
7325.69153  6.10889 0.35452 
7327.01721  5.85099 0.37511 
7328.34290  5.55204 0.43916 
7329.66861  4.86803 0.50385 
7330.99433  6.11042 0.51821 
7332.32006  5.92254 0.48985 
7333.64581  6.36476 0.41348 
7334.97157  6.21631 0.36636 
7336.29735  5.41486 0.35489 
7337.62314  5.37296 0.35673 
7338.94895  5.90302 0.42947 
7340.27477  6.15112 0.59028 
7341.60060  5.69897 0.69341 
7342.92645  5.38390 0.70235 
7344.25232  5.60316 0.61547 
7345.57820  6.24021 0.44291 
7346.90409  5.44705 0.36699 
7348.23000  5.67843 0.36443 
7349.55592  5.27726 0.35949 
7350.88185  5.95293 0.36463 
7352.20780  5.96554 0.36749 
7353.53377  5.60169 0.36208 
7354.85975  4.91711 0.35969 
7356.18574  5.66733 0.36555 
7357.51175  5.60281 0.41205 
7358.83777  5.27862 0.46917 
7360.16381  4.96028 0.48768 
7361.48986  6.13579 0.47345 
7362.81593  5.32797 0.40870 
7364.14201  5.44243 0.36267 
7365.46810  5.31755 0.35939 
7366.79421  5.22117 0.37408 
7368.12033  5.05246 0.46725 
7369.44647  6.28952 0.58940 
7370.77262  6.22079 0.63018 
7372.09879  7.07027 0.60284 
7373.42497 10.16708 0.50303 
7374.75117 12.58085 0.41343 
7376.07338 14.62915 0.68025 
7376.07972 14.51723 0.51295 
7377.40360 14.01090 0.40968 
7378.72984 11.85462 0.38537 
7380.05609  8.52878 0.36903 
7381.38236  7.16701 0.36399 
7382.70864  5.85644 0.35704 
7384.03494  5.62472 0.35481 
7385.36125  5.87905 0.35498 
7386.68758  6.53289 0.35470 
7388.01392  6.65608 0.36015 
7389.34027  9.51228 0.37914 
7390.66664 11.25072 0.40932 
7391.99302 12.23562 0.46088 
7393.31942 11.88082 0.47728 
7394.64583  9.58469 0.45927 
7395.97226  7.63388 0.41412 
7397.29870  6.16889 0.36520 
7398.62515  5.61879 0.35766 
7399.95162  5.41677 0.38140 
7401.27811  4.62806 0.46940 
7402.60461  4.03657 0.52769 
7403.93112  4.32534 0.53237 
7405.25765  5.61588 0.48363 
7406.58419  5.27712 0.38531 
7407.91074  4.64346 0.35147 
7409.23731  4.71013 0.34609 
7410.56390  5.31292 0.34561 
7411.89050  5.00883 0.34817 
7413.21711  5.27758 0.35556 
7414.54374  5.11625 0.35339 
7415.87039  5.87201 0.35675 
7417.19704  5.23130 0.35015 
7418.52372  5.45289 0.34996 
7419.85040  5.16844 0.34929 
7421.17710  5.29663 0.35132 
7422.50382  5.23433 0.35203 
7423.83055  5.93538 0.35140 
7425.15729  4.78779 0.34380 
7426.48405  5.67369 0.35237 
7427.81082  5.49065 0.35552 
7429.13761  5.23957 0.38443 
7430.46441  5.26333 0.39860 
7431.79123  5.66365 0.40328 
7433.11806  4.93003 0.38563 
7434.44491  5.13563 0.35738 
7435.77177  5.78867 0.34934 
7437.09864  5.63213 0.37694 
7438.42553  5.42530 0.43015 
7439.75243  4.47975 0.44827 
7441.07935  6.09807 0.44744 
7442.40628  5.80965 0.40160 
7443.73323  5.01312 0.35667 
7445.06019  5.86635 0.34867 
7446.38717  5.37194 0.34600 
7447.71416  6.94561 0.35201 
7449.04116  5.58856 0.34805 
7450.36818  6.01866 0.34885 
7451.69522  5.09367 0.34891 
7453.02227  5.88336 0.34994 
7454.34933  5.39713 0.35032 
7455.67641  6.18230 0.35161 
7457.00350  5.64384 0.34998 
7458.33060  5.81907 0.35474 
7459.65773  5.54936 0.35456 
7460.98486  5.09425 0.35702 
7462.31201  6.07531 0.36822 
7463.63917  5.91699 0.37467 
7464.96635  3.97392 0.37498 
7466.29355  5.19975 0.39149 
7467.62075  5.66525 0.39530 
7468.94798  5.17696 0.39463 
7470.27521  6.19487 0.39785 
7471.60247  5.35849 0.40060 
7472.92973  5.33075 0.42791 
7474.25701  5.93906 0.45403 
7475.58431  5.10357 0.43281 
7476.91162  5.74838 0.41522 
7478.23894  5.83714 0.39211 
7479.56628  5.57765 0.41289 
7480.89363  5.66928 0.43230 
7482.22100  5.41375 0.44835 
7483.54838  5.83969 0.46616 
7484.87578  4.84714 0.44836 
7486.20319  5.20163 0.43684 
7487.53061  6.13312 0.39903 
7488.85805  5.88573 0.35591 
7490.18551  4.52486 0.34952 
7491.51298  5.14681 0.35341 
7492.84046  5.62223 0.36458 
7494.16796  5.67895 0.38125 
7495.49547  6.61561 0.38293 
7496.82300  5.67169 0.37448 
7498.15054  5.46635 0.35575 
7499.47810  5.86472 0.35096 
7500.80567  5.82811 0.35237 
7502.13326  5.14245 0.34992 
7503.46086  5.41686 0.35306 
7504.78847  6.00010 0.35266 
7506.11610  5.59092 0.34743 
7507.44374  5.42863 0.34566 
7508.77140  5.58526 0.34713 
7510.09908  5.94941 0.34954 
7511.42676  5.65201 0.34222 
7512.75446  5.67362 0.34613 
7514.08218  4.78624 0.34241 
7515.40991  4.94313 0.34203 
7516.73766  5.87656 0.35835 
7518.06542  5.94051 0.36815 
7519.39319  5.00370 0.36640 
7520.72053  5.24331 0.38079 
7522.04879  5.54477 0.40099 
7523.37660  6.28006 0.50931 
7524.70444  5.80415 0.59152 
7526.03229  5.00494 0.59372 
7527.36015  6.77224 0.53888 
7528.68802  4.97709 0.41997 
7530.01592  5.36226 0.40037 
7531.34382  4.98129 0.42742 
7532.67174  6.35302 0.43285 
7533.99968  6.06448 0.41050 
7535.32763  5.58620 0.36716 
7536.65559  5.45384 0.35191 
7537.98357  6.23908 0.35510 
7539.31156  5.54127 0.36232 
7540.63957  6.30610 0.37574 
7541.96759  5.96456 0.37663 
7543.29288  5.43489 0.43132 
7543.30181  4.41981 0.68333 
7544.62368  6.40108 0.36201 
7545.95175  5.79755 0.35072 
7547.27983  5.26872 0.34551 
7548.60793  6.44356 0.35278 
7549.93604  5.86505 0.34942 
7551.26416  6.38515 0.35652 
7552.59185  6.59273 0.37029 
7553.92046  6.42060 0.36062 
7555.24863  5.44782 0.35659 
7556.57681  6.26436 0.37947 
7557.90501  5.46331 0.39889 
7559.23322  5.88276 0.40419 
7560.56145  5.16837 0.39705 
7561.88969  5.73253 0.36924 
7563.21795  5.89827 0.34917 
7564.54622  5.07442 0.34478 
7565.87450  5.50712 0.34903 
7567.20280  5.68251 0.35657 
7568.53112  5.64040 0.36071 
7569.85945  5.48348 0.38658 
7571.18779  5.47197 0.46537 
7572.51615  5.36955 0.52629 
7573.84453  5.45602 0.53177 
7575.17291  5.64321 0.49048 
7576.50156  5.88725 0.39306 
7577.83019  5.18733 0.34534 
7579.15623  6.33145 0.39346 
7580.48711  4.38616 0.32881 
7581.81538  5.53395 0.33323 
7583.14162  5.47811 0.38664 
7592.44136  6.31078 0.40083 
7593.77107  5.11593 0.35338 
7595.09947  5.25282 0.37681 
7596.42832  5.20515 0.44380 
7597.75718  3.81970 0.57314 
7599.08605  5.64257 0.72404 
7600.41472  6.07700 0.80743 
7601.74363  4.77642 0.84665 
7603.07246  5.20909 0.77501 
7604.40117  5.43342 0.74773 
7605.72990  5.46891 0.77519 
7607.05864  4.18891 0.76528 
7608.38740  4.92264 0.74458 
7609.71617  4.56163 0.70517 
7611.04495  5.30494 0.67740 
7612.37375  4.66125 0.60024 
7613.70256  5.28683 0.55175 
7615.03139  4.71135 0.49042 
7616.36024  4.94780 0.45674 
7617.68910  5.86924 0.46503 
7619.01797  6.09432 0.45006 
7620.34686  5.95763 0.44224 
7621.67576  4.97782 0.43435 
7623.00468  5.14146 0.42519 
7624.33361  6.64230 0.45193 
7625.66256  5.27721 0.47054 
7626.99152  4.66310 0.49417 
7628.32049  5.11861 0.58844 
7629.64949  4.85796 0.63607 
7630.97849  5.98803 0.63026 
7632.30751  4.54691 0.56817 
7633.63655  5.88939 0.49617 
7634.96560  4.70946 0.44634 
7636.29466  6.66518 0.45638 
7637.62374  5.07246 0.44438 
7638.95284  5.83650 0.43063 
7640.28195  4.72136 0.42342 
7641.61107  5.61830 0.43643 
7642.94021  4.88299 0.41590 
7644.26936  6.56943 0.40876 
7645.59853  5.31507 0.40820 
7646.92771  5.17984 0.40305 
7648.25691  5.49046 0.38865 
7649.58612  5.30331 0.38086 
7650.91535  5.83158 0.38831 
7652.24459  5.49769 0.39662 
7653.57385  5.35058 0.40858 
7654.90312  5.74212 0.41162 
7656.23241  5.02528 0.39859 
7657.56171  5.48842 0.37014 
7658.89102  5.31672 0.35133 
7660.22035  6.01716 0.35986 
7661.54970  5.46808 0.39282 
7662.87906  5.18192 0.42846 
7664.20843  4.96136 0.42574 
7665.53782  5.89700 0.41337 
7666.86723  5.54204 0.36619 
7668.19665  5.38141 0.34619 
7669.52608  5.61527 0.34519 
7670.85553  6.25301 0.34664 
7672.18499  5.42366 0.34210 
7673.51447  5.65207 0.34308 
7674.84397  5.78816 0.34592 
7676.17347  5.22414 0.34486 
7677.50300  5.31791 0.34202 
7678.83253  5.59110 0.33693 
7680.16209  5.47729 0.34159 
7681.49165  5.47884 0.34671 
7682.82124  5.89483 0.35129 
7684.15083  5.73486 0.35460 
7685.48044  5.39969 0.36227 
7686.81007  5.10338 0.36240 
7688.13551  5.88611 0.62577 
7688.14202  6.06116 0.46923 
7689.46937  5.79128 0.36791 
7690.79904  5.77425 0.36756 
7692.12872  6.09909 0.37030 
7693.45843  4.76930 0.36538 
7694.78814  5.24872 0.36085 
7696.11787  6.13948 0.35875 
7697.44762  6.09541 0.35674 
7698.77738  5.40732 0.36416 
7700.10715  5.56760 0.38152 
7701.43694  5.46895 0.38265 
7702.76674  6.47918 0.37661 
7704.09656  6.84399 0.35862 
7705.42640  6.39375 0.35211 
7706.75625  6.22149 0.34295 
7708.08611  4.53931 0.33513 
7709.41599  5.63032 0.34452 
7710.74588  5.29540 0.39351 
7712.07579  5.38038 0.53967 
7713.40571  4.85739 0.62118 
7714.73565  5.69745 0.66094 
7716.06560  5.27838 0.69021 
7717.39557  6.07475 0.68560 
7718.72555  5.20620 0.67329 
7720.05555  4.74877 0.60561 
7721.38556  5.74584 0.46321 
7722.71559  5.22579 0.37992 
7724.04563  5.41889 0.39353 
7725.37569  6.63914 0.43169 
7726.70576  4.75689 0.44878 
7728.03585  5.01273 0.43331 
7729.36595  5.53588 0.40599 
7730.69607  5.31550 0.36130 
7732.02620  6.03882 0.35170 
7733.35634  5.78949 0.35563 
7734.68650  6.13559 0.36344 
7736.01668  5.60050 0.36913 
7737.34687  5.78958 0.37019 
7738.67708  6.22734 0.36505 
7740.00730  5.79115 0.35839 
7741.33753  5.28369 0.35556 
7742.66778  5.20740 0.35217 
7743.99805  5.78051 0.34780 
7745.32833  5.10456 0.34964 
7746.65862  5.62656 0.35093 
7747.98893  5.11411 0.36854 
7749.31926  4.95691 0.50082 
7750.64960  5.17039 0.70964 
7751.97995  5.66554 0.76434 
7753.31032  4.02762 0.72983 
7754.64071  5.75946 0.55808 
7755.97110  5.38544 0.37753 
7757.30152  5.74908 0.36373 
7758.63195  5.08026 0.40117 
7759.96239  5.31931 0.49212 
7761.29285  3.97650 0.51392 
7762.62332  5.67990 0.50818 
7763.95381  4.90677 0.42805 
7765.28432  5.38870 0.35136 
7766.61484  5.87430 0.34073 
7767.94537  5.60569 0.34326 
7769.27592  5.56288 0.34579 
7770.60648  4.90783 0.34535 
7771.93706  5.16267 0.36603 
7773.26765  5.40800 0.40675 
7774.59826  7.03741 0.43154 
7775.92889  8.48069 0.43106 
7777.25952 10.28799 0.40677 
7778.59018  9.20699 0.37499 
7779.92084  8.65434 0.42861 
7781.25153  6.76603 0.46113 
7782.58223  6.10239 0.45716 
7783.91294  6.15221 0.42476 
7785.24367  5.62219 0.36138 
7786.57441  5.89322 0.34992 
7787.90517  4.40854 0.34340 
7789.23594  4.89988 0.35047 
7790.56673  5.31017 0.35787 
7791.89753  5.39207 0.38422 
7793.22835  5.42928 0.51674 
7794.55918  5.50366 0.64801 
7795.89003  6.38438 0.66494 
7797.22089  5.21317 0.61827 
7798.55177  6.06931 0.45071 
7799.88266  5.67824 0.34555 
7801.21357  5.47107 0.33424 
7802.54449  5.24697 0.33524 
7803.87543  5.51189 0.33913 
7805.20638  5.30855 0.33907 
7806.53735  5.49045 0.35513 
7807.86833  5.54011 0.42898 
7809.19933  5.40007 0.48747 
7810.53034  5.13096 0.49329 
7811.86137  5.51040 0.46167 
7813.19241  5.07206 0.37624 
7814.52347  5.08363 0.35155 
7815.85172  5.20164 0.41610 
7815.86068  5.42686 0.65703 
7817.18563  5.29527 0.35507 
7818.51673  5.37326 0.35729 
7819.84735  6.10539 0.44722 
7821.17898  3.77925 0.61505 
7822.51013  5.38360 0.70959 
7823.84130  4.84854 0.70113 
7825.17247  5.61709 0.59921 
7826.50367  4.96081 0.39568 
7827.83487  4.76129 0.35069 
7829.16610  4.68135 0.34834 
7830.49734  5.51206 0.34897 
7831.82859  4.79156 0.34411 
7833.15986  5.17602 0.33745 
7834.49114  5.71243 0.34264 
7835.82244  5.53571 0.34288 
7837.15375  5.44539 0.34014 
7838.48508  5.59538 0.34065 
7839.81642  5.60217 0.36821 
7841.14778  5.33553 0.45045 
7842.47915  5.75650 0.47825 
7843.81054  6.03321 0.47334 
7845.14195  5.15292 0.41522 
7846.47336  5.16885 0.34509 
7847.80480  4.86094 0.34412 
7849.13625  5.33603 0.37284 
7850.46771  5.79790 0.40479 
7851.79919  5.06820 0.48880 
7853.13068  5.49647 0.66170 
7854.46219  4.64398 0.73162 
7855.79372  4.63939 0.71111 
7857.12526  4.55604 0.60260 
7858.45681  4.23016 0.44149 
7859.78838  5.57031 0.47739 
7861.11997  5.86500 0.54340 
7862.45157  5.62514 0.53378 
7863.78318  4.21752 0.48699 
7865.11481  6.04957 0.39693 
7866.44646  4.91877 0.36240 
7867.77812  4.99900 0.41290 
7869.10979  5.70755 0.46327 
7870.44148  4.93007 0.55371 
7871.77319  5.72937 0.58019 
7873.10491  5.55707 0.54953 
7874.43664  5.22281 0.47652 
7875.76839  5.13624 0.36731 
7877.10016  5.27594 0.35904 
7878.43194  4.95925 0.41367 
7879.76374  4.85559 0.45486 
7881.09555  5.55500 0.49314 
7882.42738  5.34312 0.49089 
7883.75922  6.14047 0.45024 
7885.09107  5.78046 0.41748 
7886.42295  5.43393 0.37078 
7887.75483  5.41787 0.37369 
7889.08674  4.84497 0.46977 
7890.41865  6.14151 0.55477 
7891.75059  4.16320 0.56492 
7893.08253  6.61930 0.52471 
7894.41450  5.13447 0.41648 
7895.74648  5.60209 0.35630 
7897.07847  5.34384 0.34565 
7898.41048  5.56151 0.34848 
7899.74250  5.49633 0.34233 
7901.07454  5.64071 0.34089 
7902.40660  5.89651 0.34109 
7903.73866  5.11466 0.34048 
7905.07075  5.68595 0.34295 
7906.40285  5.13360 0.34451 
7907.73496  5.85052 0.34775 
7909.06709  5.86515 0.34576 
7910.39924  5.13084 0.35680 
7911.73140  4.43983 0.44040 
7913.06358  5.32455 0.67777 
7914.39577  7.05959 0.83292 
7915.72797  6.35062 0.83029 
7917.06019  6.47783 0.72411 
7918.39243  5.19168 0.48103 
7919.72468  6.06506 0.44688 
7921.05695  4.61319 0.55485 
7922.38923  5.93226 0.59176 
7923.72153  6.32100 0.57268 
7925.05384  5.50815 0.47342 
7926.38617  5.79088 0.36175 
7927.71851  6.02508 0.34400 
7929.05087  5.11275 0.35438 
7930.38325  4.03014 0.41912 
7931.71564  5.39723 0.49632 
7933.04804  4.66977 0.50602 
7934.38046  4.96269 0.48712 
7935.71289  5.57065 0.40177 
7937.04534  5.92421 0.34574 
7938.37781  6.07198 0.33663 
7939.71029  5.95704 0.33327 
7941.04279  5.27881 0.33120 
7942.37530  6.07326 0.34248 
7943.70782  5.61715 0.33905 
7945.04037  5.27786 0.34631 
7946.37292  5.79616 0.35669 
7947.70549  5.79087 0.38065 
7949.03808  5.98134 0.45632 
7950.37069  4.99611 0.47587 
7951.70330  4.91489 0.47002 
7953.03594  5.78959 0.41822 
7954.36859  5.60271 0.34714 
7955.70125  5.52524 0.33704 
7957.03393  5.65314 0.32947 
7958.36662  5.71254 0.33073 
7959.69933  5.23628 0.32761 
7961.03206  5.56942 0.33028 
7962.36480  5.39388 0.35530 
7963.69755  5.11630 0.52827 
7965.03032  6.45851 0.70485 
7966.36311  5.65542 0.73320 
7967.69591  5.90014 0.69543 
7969.02873  5.17523 0.49537 
7970.36156  5.63837 0.37641 
7971.69441  5.81712 0.35926 
7973.02727  4.89659 0.33695 
7974.36015  5.31931 0.33579 
7975.69304  4.89843 0.34353 
7977.02595  5.43786 0.38090 
7978.35888  5.49112 0.43351 
7979.69182  6.44656 0.52461 
7981.02477  5.45374 0.53538 
7982.35774  5.65937 0.50569 
7983.69073  6.14005 0.43059 
7985.02373  6.01042 0.34676 
7986.35675  5.85710 0.33871 
7987.68978  5.97210 0.34489 
7989.02282  5.93597 0.34027 
7990.35589  4.98712 0.34756 
7991.68896  4.90487 0.42029 
7993.02206  5.35495 0.66125 
7994.35517  4.25099 0.76085 
7995.68829  6.19073 0.75577 
7997.02143  7.20213 0.63987 
7998.35458  5.68630 0.39369 
7999.68775  5.95009 0.34645 
8001.02094  5.95570 0.34688 
8002.35414  5.15137 0.34291 
8003.68736  5.32575 0.34211 
8005.02059  5.42698 0.34273 
8006.35383  5.14988 0.33646 
8007.68710  5.29355 0.33350 
8009.02037  5.49740 0.33174 
8010.35367  5.23257 0.33107 
8011.68697  6.20321 0.34524 
8013.02030  5.60854 0.39539 
8014.35364  6.69386 0.47596 
8015.68699  4.96321 0.47887 
8017.02036  5.55353 0.46487 
8018.35375  5.53374 0.39317 
8019.68715  5.27023 0.35653 
8021.02056  5.24099 0.35725 
8022.35400  5.59798 0.36014 
8023.68744  5.75824 0.37422 
8025.02091  4.74966 0.51145 
8026.35438  6.64303 0.64673 
8027.68788  6.16960 0.65919 
8029.02139  6.79087 0.61830 
8030.35491  6.77279 0.44718 
8031.68845  5.35694 0.37122 
8033.02200  6.16770 0.35651 
8034.35557  5.44645 0.34962 
8035.68916  6.36886 0.34236 
8037.02276  5.09638 0.33292 
8038.35638  5.93467 0.33403 
8039.69001  6.16574 0.33648 
8041.02366  5.81595 0.33432 
8042.35732  5.86119 0.33805 
8043.69100  5.04700 0.33056 
8045.02469  5.69086 0.32945 
8046.35840  5.88908 0.32793 
8047.69213  5.76721 0.33207 
8049.02587  6.39332 0.33997 
8050.35962  5.87547 0.35779 
8051.69340  5.34978 0.40494 
8053.02718  5.31820 0.43166 
8054.36099  5.45496 0.42022 
8055.69480  6.05342 0.39239 
8057.02864  5.78574 0.34293 
8058.36248  5.98219 0.33534 
8059.69635  5.35035 0.33847 
8061.03023  6.08998 0.40479 
8062.36412  5.75408 0.49955 
8063.69803  5.65673 0.51569 
8065.03196  7.08362 0.50175 
8066.36590  6.03632 0.40807 
8067.69986  5.89345 0.34299 
8069.03383  5.53697 0.33263 
8070.36782  5.76148 0.33271 
8071.70182  5.18172 0.32609 
8073.03584  6.16967 0.33119 
8074.36988  5.46317 0.33350 
8075.70393  5.91190 0.33714 
8077.03799  5.86115 0.34125 
8078.37272  5.17122 0.41780 
8079.70682  5.86174 0.41451 
8081.04093  5.82168 0.41650 
8082.37506  6.29627 0.41598 
8083.70631  5.49001 0.31969 
8085.04204  5.76716 0.34056 
8086.37688  5.68218 0.34629 
8087.71108  5.82717 0.34498 
8089.04528  5.82703 0.33540 
8090.37950  5.01052 0.32908 
8091.71374  5.71846 0.33398 
8093.04799  6.10838 0.35726 
8094.38226  6.14162 0.37880 
8095.71654  5.64507 0.37742 
8097.05084  6.12909 0.36751 
8098.38516  5.12016 0.33414 
8099.71948  6.55583 0.33618 
8101.05383  5.39148 0.35042 
8102.38819  6.06034 0.40312 
8103.72206  5.62390 0.44113 
8105.05696  5.51349 0.41480 
8106.39137  5.34376 0.37737 
8107.72579  5.95973 0.34278 
8109.06023  5.30686 0.33235 
8110.39468  6.09030 0.33469 
8111.72915  5.83094 0.33587 
8113.06364  5.95706 0.33428 
8114.39814  5.46987 0.32782 
8115.73266  5.75736 0.32935 
8117.06719  5.77894 0.33038 
8118.40174  5.68990 0.32766 
8119.73630  6.17217 0.33173 
8121.07088  5.31420 0.32795 
8122.40547  5.94382 0.32893 
8123.74009  6.18936 0.32938 
8125.07471  5.98274 0.33151 
8126.40935  6.43049 0.33567 
8127.74401  6.13284 0.33468 
8129.07868  5.17625 0.33169 
8130.41337  6.20368 0.33603 
8131.74808  5.78844 0.33580 
8133.08280  5.65969 0.32990 
8134.41753  7.16010 0.34122 
8135.75228  5.70133 0.33470 
8137.08705  5.08511 0.33384 
8138.42183  5.63794 0.34929 
8139.75663  6.27061 0.36538 
8141.09144  5.24057 0.35685 
8142.42627  5.21778 0.35148 
8143.76112  6.59931 0.33856 
8145.09598  5.13934 0.33098 
8146.43085  5.66284 0.35136 
8147.76575  6.24173 0.36636 
8149.10065  5.35516 0.36532 
8150.43558  5.83357 0.35391 
8151.77052  5.73306 0.33438 
8153.10547  5.79616 0.33134 
8154.44044  6.42726 0.33016 
8155.77543  5.81540 0.33061 
8157.11043  6.19701 0.33327 
8158.44545  6.15038 0.33278 
8159.78048  5.77074 0.33464 
8161.11553  6.36997 0.33705 
8162.45059  5.72391 0.33550 
8163.78567  4.95040 0.33350 
8165.12077  5.38450 0.33438 
8166.45588  6.88187 0.33963 
8167.79101  6.12014 0.33943 
8169.12615  5.71287 0.33398 
8170.46131  6.13117 0.33410 
8171.79649  6.03141 0.33151 
8173.13168  6.31328 0.33945 
8174.46688  6.43970 0.33733 
8175.80211  5.49452 0.33342 
8177.13734  5.86605 0.33752 
8178.47260  5.14506 0.33942 
8179.80787  5.85831 0.34589 
8181.14315  5.75045 0.34460 
8182.47845  5.44039 0.35115 
8183.81377  6.67525 0.35855 
8185.14910  6.24102 0.36206 
8186.48445  6.17713 0.36088 
8187.81981  6.35840 0.36785 
8189.15519  5.71593 0.36062 
8190.49059  5.57447 0.36155 
8191.82600  5.99421 0.36523 
8193.16143  6.07734 0.35855 
8194.49687  5.30417 0.36355 
8195.83233  5.61225 0.36808 
8199.83880  5.88330 0.35639 
8201.17432  5.34537 0.34572 
8202.50986  5.82574 0.34501 
8203.84541  6.00505 0.34856 
8205.18098  6.36184 0.34739 
8206.51657  6.20899 0.34694 
8207.85217  5.45991 0.34476 
8209.18778  5.77276 0.34366 
8210.52342  6.00692 0.33976 
8211.85906  5.59012 0.33176 
8213.19473  6.41591 0.33572 
8214.53041  5.85877 0.33459 
8215.86610  5.80611 0.33449 
8217.20182  5.61569 0.33370 
8218.53754  6.22794 0.33878 
8219.87329  6.06802 0.33444 
8221.20905  6.34029 0.33039 
8222.54482  6.56734 0.33441 
8223.88061  5.67376 0.33462 
8225.21642  6.37785 0.34217 
8226.55224  6.12552 0.34281 
8227.88808  4.96139 0.33643 
8229.22394  5.57968 0.34406 
8230.55981  5.82813 0.34430 
8231.89569  6.08129 0.34239 
8233.23160  5.90645 0.33811 
8234.56468  5.92839 0.41538 
8234.57374  6.10974 0.58444 
8235.90345  6.02608 0.33612 
8237.23940  6.69622 0.33511 
8238.57536  5.78960 0.32961 
8239.91135  6.22370 0.33318 
8241.24734  5.73047 0.34010 
8242.58336  6.61998 0.34420 
8243.91939  5.54236 0.34036 
8245.25543  5.81340 0.34115 
8246.59149  6.58965 0.34027 
8247.92757  6.64537 0.34513 
8249.26366  6.35377 0.34634 
8250.59977  5.11766 0.34294 
8251.93590  6.14408 0.33751 
8253.27204  5.66582 0.32989 
8254.60820  6.52524 0.33270 
8255.94437  5.88184 0.34017 
8257.28056  6.84356 0.33998 
8258.61676  6.27112 0.33863 
8259.95298  5.60477 0.33145 
8261.28922  5.51171 0.32835 
8262.62547  5.80811 0.32977 
8263.96174  6.61447 0.33581 
8265.29803  5.76803 0.33133 
8266.63433  6.50138 0.33593 
8267.97064  6.66576 0.33674 
8269.30698  6.63351 0.34052 
8270.64332  6.64924 0.33827 
8271.97969  6.66539 0.33751 
8273.31607  5.54923 0.33177 
8274.65247  6.16735 0.33538 
8275.98888  5.72739 0.33760 
8277.32531  5.85947 0.39038 
8278.66175  5.18073 0.46201 
8279.99771  6.68448 0.55727 
8281.33469  4.92253 0.61695 
8282.67118  5.47913 0.62469 
8284.00769  6.13574 0.59206 
8285.34421  6.20585 0.52956 
8286.68075  6.27930 0.49228 
8288.01731  4.85762 0.62950 
8289.35388  6.00910 0.72628 
8290.69047  6.70505 0.70124 
8292.02708  6.66431 0.60678 
8293.36370  6.08565 0.41353 
8294.70033  5.77517 0.37763 
8296.03699  6.87960 0.47100 
8297.37365  6.05201 0.56042 
8298.71034  4.99778 0.74116 
8300.04704  4.42735 0.76643 
8301.38376  5.61357 0.71389 
8302.72049  5.79180 0.58881 
8304.05724  6.48876 0.39097 
8305.39400  5.71245 0.36511 
8306.73078  6.21976 0.35232 
8308.06758  5.52634 0.34125 
8309.40439  6.00477 0.38505 
8310.74122  5.89405 0.47778 
8312.07807  6.71718 0.49711 
8313.41493  6.66785 0.48668 
8314.75181  6.20971 0.41354 
8316.08870  5.22539 0.33826 
8317.42561  6.00070 0.34069 
8318.76254  6.34895 0.35488 
8320.09948  5.70463 0.35328 
8321.43644  6.32975 0.35095 
8322.77341  5.59818 0.34349 
8324.10613  6.09461 0.56636 
8324.11281  6.10411 0.42598 
8325.44741  5.94518 0.33930 
8326.78443  6.12342 0.33305 
8328.12147  6.60111 0.33364 
8329.45852  5.65714 0.32851 
8330.79559  6.05629 0.33240 
8332.13268  5.79906 0.32359 
8333.46886  5.34477 0.32317 
8334.80598  4.81570 0.31720 
8336.14312  6.23537 0.32578 
8337.48027  6.27071 0.33438 
8338.81804  5.84443 0.34639 
8340.15554  5.89967 0.35474 
8341.49274  5.83255 0.37999 
8342.82996  5.07016 0.53596 
8344.16719  4.25575 0.93283 
8345.50444  6.88777 1.11375 
8346.84170  4.12064 1.08315 
8348.17898  5.39774 0.89603 
8349.51628  6.25019 0.48539 
8350.85359  5.34656 0.40511 
8352.19092  4.84515 0.56156 
8353.52827  4.56672 0.67450 
8354.86563  6.04141 0.67026 
8356.20301  5.80174 0.61514 
8357.54040  5.66168 0.41459 
8358.87781  5.99937 0.34272 
8360.21524  6.07206 0.35086 
8361.55268  5.58281 0.36466 
8362.89014  5.79827 0.38455 
8364.22761  6.08893 0.45330 
8365.56510  5.48355 0.48283 
8366.90261  6.25125 0.48180 
8368.23819  7.10026 0.51652 
8372.25815  7.12889 1.22212 
8373.59033  6.00740 0.31904 
8374.92605  6.73773 0.38202 
8376.26367  6.78499 0.39256 
8377.60130  5.73014 0.38768 
8378.94239  5.17411 0.33510 
8380.28006  5.74849 0.37056 
8381.61731  5.87332 0.48221 
8382.95457  5.68478 0.58379 
8384.29184  7.02474 0.58935 
8385.62942  6.80268 0.54497 
8386.96717  6.28573 0.39807 
8388.30493  5.60690 0.33591 
8389.64272  6.32401 0.33871 
8390.98052  6.06853 0.34530 
8392.31833  6.13468 0.35125 
8393.65616  6.47384 0.35204 
8394.99401  6.99712 0.34865 
8396.33188  5.33100 0.34948 
8397.66976  5.89299 0.48495 
8399.00765  6.44244 0.84629 
8400.34557  6.53699 0.96065 
8401.68350  5.64710 0.93962 
8403.02144  6.33070 0.74781 
8404.35941  6.67271 0.39895 
8405.69738  6.16509 0.34178 
8407.03538  6.84370 0.33916 
8408.37046  5.85895 0.40654 
8408.37953  6.66636 0.60862 
8409.71142  6.24708 0.33645 
8411.04946  5.37479 0.33333 
8412.38752  6.10781 0.34385 
8413.72560  5.75827 0.39605 
8415.06369  5.79867 0.57499 
8416.40180  5.72588 0.63582 
8417.73993  5.79835 0.62504 
8419.07807  5.64241 0.52558 
8420.41623  5.99641 0.36100 
8421.75440  6.00549 0.34467 
8423.09259  5.56086 0.34790 
8424.43080  5.35983 0.35262 
8425.76902  5.73667 0.35652 
8427.10726  5.84732 0.36765 
8428.44552  5.74243 0.46752 
8429.78379  5.71716 0.84288 
8431.12208  4.33636 1.00938 
8432.46039  5.31636 1.00183 
8433.79871  5.97780 0.84930 
8435.13705  6.42036 0.46604 
8436.47540  6.75619 0.36649 
8437.81377  6.41651 0.35534 
8439.15216  5.92684 0.33947 
8440.49056  6.17420 0.33482 
8441.82898  4.89261 0.33437 
8443.16742  6.14767 0.34023 
8444.50587  6.10995 0.34186 
8445.84434  6.30996 0.36416 
8447.18283  6.52654 0.37784 
8448.52133  6.21102 0.37743 
8449.85985  6.00787 0.37932 
8451.19838  5.87290 0.44584 
8452.53693  6.74387 0.58194 
8453.87550  6.91122 0.60219 
8455.21409  5.39251 0.57212 
8456.55269  6.38949 0.45082 
8457.89130  6.20148 0.34613 
8459.22994  5.83581 0.34361 
8460.56859  5.95565 0.34326 
8461.90725  6.21871 0.34576 
8463.24594  5.25664 0.38429 
8464.58464  5.17833 0.63025 
8465.92335  5.86440 0.85231 
8467.26208  6.18090 0.86554 
8468.60083  5.78358 0.78038 
8469.93960  6.16095 0.50419 
8471.27838  5.80085 0.34396 
8472.61718  6.19625 0.34031 
8473.95599  6.26330 0.35258 
8475.29482  6.38418 0.36261 
8476.63367  6.04884 0.35979 
8477.97253  5.61424 0.35477 
8479.31142  6.63039 0.34351 
8480.65031  6.04483 0.33557 
8481.98923  6.04729 0.33486 
8483.32816  6.44093 0.33900 
8484.66710  6.48047 0.33755 
8486.00607  6.44459 0.34154 
8487.34505  5.39777 0.33648 
8488.68404  6.16216 0.34134 
8490.02306  5.65965 0.33938 
8491.36208  5.78962 0.35288 
8492.70113  6.29554 0.43425 
8494.04019  6.68908 0.51900 
8495.37927  5.82263 0.52317 
8496.71837  6.62748 0.49601 
8498.05748  7.14709 0.39472 
8499.39661  6.35529 0.33774 
8500.73522  5.60400 0.35523 
8502.07492  6.30699 0.35548 
8503.41409  5.43063 0.42863 
8504.75329  6.82495 0.61488 
8506.09250  7.46494 0.67513 
8507.43173  5.59258 0.65393 
8508.77097  7.59482 0.54020 
8510.11023  6.26985 0.36592 
8511.44951  6.06880 0.33813 
8512.78881  6.30388 0.34031 
8514.12812  6.34903 0.34016 
8515.46744  6.14846 0.33901 
8516.80679  5.63350 0.33419 
8518.14615  6.63978 0.33894 
8519.48553  6.43109 0.34193 
8520.82492  6.06912 0.34464 
8522.16433  5.70096 0.34734 
8523.50376  6.03650 0.34895 
8524.84320  6.17376 0.34684 
8526.18266  6.36961 0.33934 
8527.52214  5.96838 0.33936 
8528.86163  7.04333 0.33819 
8530.20115  5.77887 0.33380 
8531.54067  6.83915 0.33928 
8532.88022  5.77831 0.33057 
8534.21978  5.62055 0.33560 
8535.55935  6.12926 0.33385 
8536.89895  5.73815 0.34049 
8538.23856  5.51698 0.38775 
8539.57819  5.66539 0.42090 
8540.91783  5.79212 0.41806 
8542.25749  6.64376 0.39304 
8543.59717  6.44937 0.33626 
8544.93686  5.59869 0.32212 
8546.27657  6.35257 0.33458 
8547.61630  6.06493 0.39520 
8548.95604  5.36689 0.48154 
8550.29580  6.23992 0.50513 
8551.63558  6.71624 0.49064 
8552.97537  5.24208 0.41931 
8554.31518  6.17926 0.35244 
8555.65501  5.72685 0.34369 
8556.99486  7.27448 0.34544 
8558.33472  6.45617 0.33939 
8559.67459  6.16005 0.33514 
8561.01449  6.29975 0.34150 
8562.35440  6.82893 0.34038 
8563.69433  6.21571 0.33995 
8565.03427  5.81607 0.33661 
8566.37423  6.87560 0.34160 
8567.71421  6.69033 0.34171 
8569.05421  5.92147 0.34033 
8570.39422  6.95683 0.34344 
8571.73424  6.80084 0.34473 
8573.07429  7.13113 0.35000 
8574.41435  6.16476 0.34549 
8575.75443  6.08917 0.35175 
8577.09453  6.02826 0.35110 
8578.43464  6.22826 0.35163 
8579.77477  6.07859 0.34774 
8581.11491  6.13206 0.34485 
8582.45507  6.79189 0.34175 
8583.79525  6.45870 0.34115 
8585.13545  6.10594 0.34212 
8586.47566  6.10204 0.34449 
8587.81589  5.59277 0.37226 
8589.15614  6.12326 0.39301 
8590.49640  6.78617 0.39481 
8591.83668  6.83958 0.38463 
8593.17698  6.85162 0.35226 
8594.51729  6.91977 0.34637 
8595.85762  6.01467 0.36531 
8597.19797  7.01000 0.40696 
8598.53833  7.13132 0.41631 
8599.87872  5.81379 0.40581 
8601.21911  6.34384 0.37679 
8602.55953  6.54805 0.34742 
8603.89996  5.88950 0.34638 
8605.24041  7.47552 0.35197 
8606.58087  6.68918 0.34740 
8607.92136  6.47073 0.34662 
8609.26186  6.29144 0.34974 
8610.60237  6.62115 0.35389 
8611.94290  6.00605 0.35725 
8613.28345  6.89016 0.37277 
8614.62402  6.62425 0.38601 
8615.96460  6.14055 0.39784 
8617.30520  5.67985 0.41360 
8618.64582  6.27545 0.43425 
8619.98646  6.17682 0.45084 
8621.32711  6.52451 0.47398 
8622.66777  5.44596 0.48877 
8624.00846  6.41837 0.50804 
8625.34916  5.78194 0.52590 
8626.68988  6.16697 0.53797 
8628.03062  6.02424 0.55983 
8629.37137  5.63609 0.56349 
8630.71214  6.47210 0.56424 
8632.05292  7.37890 0.57150 
8633.39373  5.84381 0.56017 
8634.73455  4.95594 0.55107 
8636.07539  6.07120 0.54266 
8637.41624  6.40796 0.51872 
8638.75711  5.58158 0.50438 
8640.09800  6.12001 0.48136 
8641.43890  7.14825 0.46084 
8642.77983  7.13511 0.44781 
8644.12077  6.09088 0.40690 
8645.46172  6.51429 0.38761 
8646.80270  6.65082 0.39994 
8648.14369  6.87732 0.41458 
8649.48469  5.50952 0.46583 
8650.82572  6.47012 0.52082 
8652.16676  7.05693 0.53842 
8653.50782  5.81008 0.53757 
8654.84889  6.51352 0.54983 
8656.18998  6.46978 0.55811 
8657.53109  6.45196 0.55531 
8658.87222  5.80217 0.55314 
8660.21336  7.42463 0.56063 
8661.55452  6.65958 0.55714 
8662.89570  5.91701 0.53799 
8664.23689  6.21242 0.52657 
8665.57810  5.90830 0.52817 
8666.91933  7.37947 0.53577 
8668.26058  6.99507 0.51760 
8669.60184  5.95401 0.50046 
8670.94312  6.05668 0.50361 
8672.28442  6.30207 0.50109 
8673.62573  5.98079 0.47195 
8674.96706  6.22884 0.45713 
8676.30841  6.04010 0.45812 
8677.64977  6.54942 0.46322 
8678.99116  5.63527 0.43615 
8680.33256  6.10763 0.41856 
8681.67397  6.40266 0.42202 
8683.01541  5.64168 0.42430 
8684.35686  6.73855 0.40953 
8685.69832  5.70224 0.38180 
8687.03981  6.19006 0.39032 
8688.38131  6.21100 0.38892 
8689.72283  6.15707 0.37791 
8691.06436  5.99151 0.36669 
8692.40592  6.29552 0.36027 
8693.74749  7.30628 0.37678 
8695.08908  5.56883 0.36973 
8696.43068  6.46912 0.36752 
8697.77230  6.78509 0.36173 
8699.11394  6.35057 0.36480 
8700.45560  6.35763 0.37761 
8701.79727  5.89387 0.37585 
8703.13896  5.85932 0.36988 
8704.48067  6.51165 0.36266 
8705.82239  6.38096 0.35942 
8707.16413  6.23005 0.37275 
8708.50589  5.54363 0.37424 
8709.84767  6.17042 0.37648 
8711.18946  6.03199 0.36432 
8712.52926  5.90517 0.39482 
8712.53766  5.73183 0.72042 
8713.87310  6.11984 0.35031 
8715.21495  5.04199 0.34198 
8716.55681  6.20862 0.35192 
8717.89869  6.25336 0.35159 
8719.24059  6.35037 0.34765 
8720.58250  6.76625 0.35026 
8721.92443  5.85625 0.33938 
8723.26638  5.41561 0.34282 
8724.60834  5.76466 0.34212 
8725.95033  6.13249 0.35156 
8727.29233  5.21153 0.35012 
8728.63434  5.67704 0.35252 
8729.97638  5.72322 0.35152 
8731.31843  5.86611 0.34295 
8732.66050  5.68723 0.34059 
8734.00259  6.30863 0.34330 
8735.34469  6.38721 0.34331 
8736.68681  5.91347 0.34296 
8738.02895  6.65210 0.35054 
8739.37110  5.83141 0.35189 
8740.71328  6.77533 0.35460 
8742.05547  6.48759 0.35517 
8743.39767  5.95844 0.35250 
8744.73990  5.73912 0.34698 
8746.08214  5.34358 0.34660 
8747.42440  5.44001 0.34746 
8748.76668  5.80155 0.34400 
8750.10897  6.19205 0.35079 
8751.45128  6.42138 0.35419 
8752.79361  6.04880 0.34790 
8754.13595  6.02792 0.34829 
8755.47851  6.18223 0.34692 
8756.82112  6.39324 0.35839 
8758.16352  5.74815 0.43700 
8759.50594  5.60178 0.54781 
8760.84794  6.67792 0.72442 
8762.19039  4.68440 0.82050 
8763.53286  7.18015 0.77892 
8764.87534  4.81035 0.69330 
8766.21785  5.50295 0.62785 
8767.56037  4.77489 0.80978 
8768.90290  7.20981 0.92171 
8770.24546  6.67611 0.88294 
8771.58803  5.71651 0.72000 
8772.93062  6.09827 0.44551 
8774.27322  6.04692 0.38840 
8775.61585  7.05744 0.51470 
8776.95849  6.59300 0.69307 
8778.30114  6.19551 0.92704 
8779.64382  6.15504 0.97395 
8780.98651  6.32495 0.86639 
8782.32922  7.56455 0.67749 
8783.67195  6.78244 0.39261 
8785.01470  6.06598 0.35460 
8786.35746  5.96128 0.34870 
8787.70024  5.93965 0.35010 
8789.04304  6.10148 0.37073 
8790.38585  6.15346 0.47983 
8791.72868  6.74534 0.59515 
8793.07153  6.36450 0.60156 
8794.41440  6.73976 0.56627 
8795.75729  6.40948 0.42305 
8797.10019  6.75219 0.35418 
8798.44311  5.61989 0.34681 
8799.78604  6.94235 0.35510 
8801.12900  6.61287 0.35097 
8802.47197  6.35380 0.35144 
8803.81496  6.37621 0.34803 
8805.15797  5.68741 0.34815 
8806.50099  6.68841 0.34396 
8807.84403  6.46414 0.34459 
8809.18709  6.74864 0.36537 
8810.53017  6.45485 0.37664 
8811.87327  7.16643 0.38920 
8813.21638  6.61462 0.37984 
8814.55951  5.90298 0.36008 
8815.90265  6.20565 0.35012 
8817.24582  6.60964 0.35118 
8818.58900  6.45345 0.35342 
8819.93220  6.41450 0.35311 
8821.27542  6.19448 0.35583 
8822.61865  6.63217 0.36328 
8823.96190  6.17138 0.40979 
8825.30517  4.94712 0.62655 
8826.64846  5.93947 1.13217 
8827.99177  8.17765 1.41908 
8829.33509  7.14734 1.38449 
8830.67843  9.64581 1.18024 
8832.02179  6.00175 0.64179 
8833.36516  6.78864 0.47946 
8834.70855  6.63759 0.53476 
8836.05196  6.56754 0.75175 
8837.39539  5.96837 0.87058 
8838.73884  7.01068 0.84809 
8840.08230  7.20135 0.74229 
8841.42578  7.40906 0.46039 
8842.76928  6.72624 0.36532 
8844.11279  6.50057 0.36147 
8845.45633  6.57251 0.37661 
8846.79988  6.25401 0.38697 
8848.14345  7.89434 0.42111 
8849.48703  6.08855 0.50993 
8850.83064  6.82228 0.56608 
8852.17426  6.74650 0.55346 
8853.51790  6.88134 0.50786 
8854.86156  7.26356 0.39663 
8856.20523  7.63165 0.36711 
8857.54892  7.29573 0.36480 
8858.89263  6.74876 0.36516 
8860.23636  6.58830 0.36380 
8861.58010  6.25669 0.36914 
8862.92387  6.55622 0.38777 
8864.26765  6.26416 0.39398 
8865.61144  6.39581 0.42577 
8866.95526  8.10620 0.59199 
8868.29909  5.93462 0.73149 
8869.64294  5.30029 0.73361 
8870.98681  7.88796 0.67888 
8872.33070  7.33401 0.47095 
8873.67460  6.53481 0.36592 
8875.01853  7.34591 0.36189 
8876.36247  7.51964 0.35972 
8877.70642  7.26886 0.36302 
8879.05040  6.17659 0.35822 
8880.39439  6.25073 0.35623 
8881.73840  6.94994 0.36140 
8883.08243  7.24624 0.39153 
8884.42647  5.63518 0.59474 
8885.77054  5.17075 1.05549 
8887.11462  8.90778 1.22232 
8888.45872  8.11464 1.18369 
8889.80284  7.65598 0.95895 
8891.14697  6.44170 0.49533 
8892.49112  7.23856 0.38989 
8893.83529  6.36163 0.36858 
8895.17948  6.72416 0.37447 
8896.52369  7.19774 0.37464 
8897.86791  6.70813 0.37925 
8899.21215  6.15094 0.37468 
8900.55641  6.45426 0.38934 
8901.90069  5.93817 0.49775 
8903.24498  5.84857 0.74365 
8904.58929  7.51375 0.81562 
8905.93362  7.57477 0.78510 
8907.27797  8.08814 0.63522 
8908.62234  6.26672 0.41217 
8909.96672  7.71164 0.39472 
8911.31112  6.82590 0.38973 
8912.65554  7.32553 0.38167 
8913.99998  7.21349 0.37129 
8915.34443  6.68901 0.36897 
8916.68891  6.91530 0.39702 
8918.03340  5.53393 0.56882 
8919.37790  4.38745 1.05365 
8920.72243  8.22736 1.30460 
8922.06698  6.83232 1.27812 
8923.41154  7.98368 1.08441 
8924.75612  5.94887 0.56724 
8926.10071  6.77560 0.39355 
8927.44533  7.32053 0.39540 
8928.78996  7.15720 0.40499 
8930.13462  6.33148 0.39622 
8931.47928  6.77275 0.38968 
8932.82397  7.61410 0.38181 
8934.16868  6.37660 0.36767 
8935.51340  6.75631 0.37193 
8936.85814  7.23798 0.38551 
8938.20290  6.97070 0.38239 
8939.54768  8.25323 0.38067 
8940.89247  6.57949 0.39006 
8942.23728  6.83530 0.48790 
8943.58212  6.34293 0.70515 
8944.92696  7.05955 0.76004 
8946.27183  7.94745 0.73503 
8947.61672  5.73846 0.59061 
8948.96162  7.30783 0.39131 
8950.30654  7.13361 0.36523 
8951.65148  6.83437 0.36063 
8952.99643  7.11240 0.36453 
8954.34141  6.73226 0.37283 
8955.68640  6.77297 0.42307 
8957.03141  5.40379 0.66935 
8958.37644  6.99543 1.07238 
8959.71945  3.94754 1.33297 
8961.06655  5.71718 1.08443 
8962.41163  8.57920 0.81589 
8963.75673  6.46355 0.42416 
8965.10185  7.05968 0.37505 
8966.44699  7.17852 0.37086 
8967.79214  6.80184 0.36599 
8969.13731  7.30413 0.37083 
8970.48250  7.18438 0.38606 
8971.82771  7.99880 0.40013 
8973.17294  6.66415 0.39340 
8974.51818  6.37621 0.38281 
8975.86345  7.10699 0.37745 
8977.20873  7.69964 0.37402 
8978.55403  6.55651 0.37107 
8979.89934  6.94812 0.38004 
8981.24468  7.10194 0.38854 
8982.59003  6.57570 0.39192 
8983.93540  6.53565 0.38946 
8985.28079  7.38706 0.40667 
8986.62620  6.40110 0.43314 
8987.97162  7.10097 0.58239 
8989.31707  6.04808 0.69907 
8990.66253  6.88517 0.70269 
8992.00801  6.84272 0.64706 
8993.35351  6.67299 0.47425 
8994.69902  6.76204 0.40322 
8996.04456  7.23746 0.39209 
8997.39011  7.17504 0.37761 
8998.73568  6.67888 0.39725 
9000.08127  6.68701 0.52406 
9001.42687  7.50466 0.81611 
9002.77250  5.75557 0.91146 
9004.11814  6.75927 0.88457 
9005.46380  7.23511 0.72056 
9006.80948  6.58737 0.42410 
9008.15518  7.33576 0.36732 
9009.50090  6.69710 0.35861 
9010.84663  6.24659 0.35212 
9012.19238  6.63436 0.35281 
9013.53815  7.13403 0.35401 
9014.88394  6.20340 0.35580 
9016.22975  6.94985 0.35644 
9017.57557  7.18694 0.36017 
9018.92141  6.07030 0.35789 
9020.26728  6.31383 0.36625 
9021.61315  5.57756 0.37610 
9022.95905  6.56695 0.38002 
9024.30497  6.55691 0.37558 
9025.65090  6.69196 0.36539 
9026.99685  6.59561 0.35455 
9028.34282  7.26773 0.37507 
9029.68881  6.51366 0.36949 
9031.03482  6.53851 0.37054 
9032.38085  7.38092 0.37007 
9033.72689  6.78572 0.35867 
9035.07295  7.13530 0.36241 
9036.41903  8.06131 0.38413 
9037.76189  6.83239 0.58567 
9037.77092  8.07769 0.73407 
9039.11125  6.33130 0.50938 
9040.45738  6.09307 0.50674 
9041.80353  7.80926 0.47680 
9043.14971  7.30094 0.38508 
9044.49589  5.81353 0.36018 
9045.84210  6.68009 0.36824 
9047.18833  6.00871 0.38267 
9048.53457  7.34266 0.46111 
9049.88084  6.57663 0.59944 
9051.22712  6.10598 0.62564 
9052.57342  6.43077 0.60524 
9053.91974  7.83412 0.50176 
9055.26607  6.83908 0.37677 
9056.61243  6.34181 0.36352 
9057.95880  6.07726 0.36242 
9059.30519  6.89940 0.36943 
9060.65160  6.75364 0.36206 
9061.99803  6.55710 0.35285 
9063.34447  6.67720 0.35652 
9064.69094  6.53514 0.35974 
9066.03742  6.69668 0.36506 
9067.38392  6.75138 0.37469 
9068.73044  6.58524 0.37860 
9070.07698  5.81278 0.37457 
9071.42354  6.24991 0.38291 
9072.77011  6.74476 0.37971 
9074.11670  5.82276 0.36309 
9075.46332  6.58505 0.35641 
9076.80995  6.39811 0.35670 
9078.15659  6.66685 0.35850 
9079.50326  6.25931 0.35481 
9080.84995  5.59299 0.34647 
9082.19665  5.68741 0.34708 
9083.54337  6.41480 0.35081 
9084.89011  6.34977 0.36072 
9086.23687  6.03451 0.36104 
9087.58365  5.58785 0.35385 
9088.93045  5.39862 0.35011 
9090.27726  5.80181 0.34327 
9091.62409  5.84638 0.37684 
9092.97094  5.95611 0.41793 
9094.31781  6.11463 0.43004 
9095.66470  5.98697 0.42094 
9097.00834  6.08142 0.50068 
9097.01736  5.59859 0.61358 
9098.35853  5.79419 0.35892 
9099.70548  5.96357 0.35771 
9101.05244  6.29435 0.37926 
9102.39942  5.79524 0.44018 
9103.74642  5.71214 0.49499 
9105.09344  6.29485 0.49616 
9106.44047  6.10191 0.45942 
9107.78753  5.56509 0.38019 
9109.13460  5.37840 0.34459 
9110.48169  6.57672 0.34560 
9111.82880  5.52424 0.34479 
9113.17593  6.09714 0.34805 
9114.52308  5.54071 0.33938 
9115.87024  6.75474 0.34866 
9117.21743  6.93290 0.35147 
9118.56463  6.39174 0.35032 
9119.91185  6.36007 0.34718 
9121.25909  5.04819 0.34229 
9122.60635  6.70081 0.35171 
9123.95363  6.47674 0.34882 
9125.30092  7.00988 0.35270 
9126.64824  6.62616 0.34942 
9127.99557  6.72328 0.35520 
9129.34292  6.82392 0.35050 
9130.69029  6.28861 0.35292 
9132.03768  6.00144 0.35448 
9133.38509  5.89037 0.35913 
9134.73252  6.06913 0.36382 
9136.07996  6.40608 0.36599 
9137.42742  5.63539 0.36479 
9138.77491  5.97372 0.36538 
9140.12241  6.77438 0.36195 
9141.46993  6.69982 0.35850 
9142.81746  7.13111 0.35804 
9144.16502  6.03531 0.34621 
9145.51260  7.21924 0.35197 
9146.86019  5.93277 0.35175 
9148.20780  7.16647 0.35687 
9149.55543  7.52858 0.36383 
9150.90308  5.64122 0.37422 
9152.25075  6.40246 0.41982 
9153.59844  5.95861 0.43304 
9154.94411  6.36051 0.51429 
9154.95232  7.05890 0.86078 
9156.29387  5.66153 0.41408 
9157.64161  5.60861 0.39480 
9158.98938  7.40205 0.39737 
9160.33716  6.67255 0.41500 
9161.68496  6.86171 0.44363 
9164.38061 -3.30271 0.25359 
9165.72847  5.84781 0.37936 
9167.07634  6.67168 0.36005 
9168.42424  6.14208 0.35380 
9169.77215  6.19949 0.35132 
9171.12008  6.90159 0.35699 
9172.46803  6.69668 0.35736 
9173.81600  7.13498 0.36449 
9175.16398  6.89277 0.36283 
9176.51199  6.88492 0.36263 
9177.86002  7.33706 0.36503 
9179.20806  6.99014 0.36341 
9180.55612  7.09628 0.36685 
9181.90420  7.32897 0.36276 
9183.25230  7.23716 0.35938 
9184.60042  6.75129 0.34905 
9185.94856  6.26349 0.35361 
9187.29672  6.00826 0.34734 
9188.64489  6.90922 0.35366 
9189.99308  6.95372 0.35438 
9191.34130  6.99076 0.35570 
9192.68953  7.42850 0.35814 
9194.03778  6.79204 0.35234 
9195.38605  6.31523 0.34609 
9196.73434  7.05896 0.35241 
9198.08264  6.77599 0.34960 
9199.43097  6.61061 0.34678 
9200.77932  6.73419 0.35037 
9202.12768  5.95715 0.35046 
9203.47606  6.74800 0.35417 
9204.82446  6.42302 0.35378 
9206.17288  7.31256 0.35322 
9207.52132  6.51976 0.34723 
9208.86978  6.72935 0.34809 
9210.21826  6.53057 0.34929 
9211.56347  7.11436 0.45445 
9211.57250  7.49558 0.59663 
9212.91527  7.57456 0.38089 
