wavelength       flux
3200.00     0.358719
3202.00    0.0889482
3204.00    0.0497042
3206.00    -0.186613
3208.00    -0.347598
3210.00    -0.338456
3212.00    -0.128998
3214.00    0.0171724
3216.00     0.232430
3218.00     0.281540
3220.00     0.121584
3222.00     0.291413
3224.00     0.382034
3226.00     0.393175
3228.00     0.517486
3230.00     0.400457
3232.00   -0.0931775
3234.00    -0.434624
3236.00    -0.523373
3238.00    -0.391506
3240.00    -0.302529
3242.00   -0.0175190
3244.00   -0.0651551
3246.00    0.0331549
3248.00   -0.0215011
3250.00    -0.166227
3252.00    -0.264183
3254.00   -0.0590361
3256.00    -0.119470
3258.00    -0.281868
3260.00    -0.484933
3262.00    -0.579367
3264.00    -0.865483
3266.00     -1.07565
3268.00     -1.00547
3270.00    -0.878703
3272.00    -0.689442
3274.00    -0.380721
3276.00    -0.147147
3278.00    -0.428995
3280.00    -0.485791
3282.00    -0.384235
3284.00    -0.319164
3286.00    -0.603330
3288.00    -0.480041
3290.00    -0.131491
3292.00    -0.248901
3294.00    -0.617036
3296.00    -0.441884
3298.00    -0.511582
3300.00    -0.923058
3302.00     -1.03028
3304.00    -0.915800
3306.00    -0.889309
3308.00    -0.730396
3310.00    -0.542223
3312.00    -0.549706
3314.00    -0.527174
3316.00    -0.528847
3318.00    -0.363988
3320.00    -0.393881
3322.00    -0.257343
3324.00    -0.242730
3326.00    -0.132675
3328.00    -0.303378
3330.00    -0.272313
3332.00    -0.368751
3334.00    -0.215156
3336.00    -0.159991
3338.00   -0.0734383
3340.00    -0.232821
3342.00    -0.191341
3344.00   -0.0875191
3346.00   -0.0555162
3348.00    -0.148902
3350.00   0.00733715
3352.00   -0.0928210
3354.00    -0.420759
3356.00    -0.467942
3358.00    -0.499082
3360.00    -0.470002
3362.00    -0.422879
3364.00    -0.344421
3366.00    -0.645579
3368.00    -0.779889
3370.00    -0.943026
3372.00    -0.911429
3374.00    -0.837759
3376.00    -0.457135
3378.00    -0.466674
3380.00    -0.317888
3382.00    -0.278261
3384.00    -0.229952
3386.00    -0.389651
3388.00    -0.410537
3390.00    -0.357197
3392.00    -0.429012
3394.00    -0.430501
3396.00    -0.480139
3398.00    -0.316780
3400.00    0.0693147
3402.00     0.399256
3404.00      2.16113
3406.00      2.53940
3408.00      5.30757
3410.00      11.7283
3412.00      12.0429
3414.00      15.5730
3416.00      24.0965
3418.00      25.3535
3420.00      18.2773
3422.00      21.1242
3424.00      25.6349
3426.00      24.9639
3428.00      27.6542
3430.00      31.6791
3432.00      29.0980
3434.00      25.6971
3436.00      24.8923
3438.00      28.4257
3440.00      34.3739
3442.00      44.6687
3444.00      48.0925
3446.00      46.7558
3448.00      36.8963
3450.00      28.3072
3452.00      26.4813
3454.00      28.8582
3456.00      28.3326
3458.00      33.8478
3460.00      42.2401
3462.00      43.1419
3464.00      43.8246
3466.00      43.7561
3468.00      45.4370
3470.00      39.5339
3472.00      31.9136
3474.00      20.2979
3476.00      13.9776
3478.00      15.3097
3480.00      22.7587
3482.00      33.1325
3484.00      44.6414
3486.00      48.8382
3488.00      41.2067
3490.00      32.6346
3492.00      31.8280
3494.00      26.3591
3496.00      29.3757
3498.00      40.2730
3500.00      46.8118
3502.00      48.3171
3504.00      47.4350
3506.00      46.6188
3508.00      43.0184
3510.00      41.7177
3512.00      41.1512
3514.00      41.1380
3516.00      37.9294
3518.00      30.4271
3520.00      23.9761
3522.00      20.2102
3524.00      20.2654
3526.00      25.0536
3528.00      31.3567
3530.00      41.4051
3532.00      46.4498
3534.00      45.8361
3536.00      44.2030
3538.00      49.2168
3540.00      51.5649
3542.00      50.9549
3544.00      51.4840
3546.00      57.9288
3548.00      58.5097
3550.00      53.7060
3552.00      43.4450
3554.00      39.4745
3556.00      33.3185
3558.00      27.1504
3560.00      28.5209
3562.00      39.6550
3564.00      47.2404
3566.00      45.0577
3568.00      44.7813
3570.00      42.7541
3572.00      36.6451
3574.00      34.9934
3576.00      42.1012
3578.00      47.9257
3580.00      51.0714
3582.00      53.5541
3584.00      51.3960
3586.00      45.8089
3588.00      44.0342
3590.00      39.1789
3592.00      39.8904
3594.00      42.8411
3596.00      49.5242
3598.00      49.1333
3600.00      49.5300
3602.00      40.5803
3604.00      29.4006
3606.00      20.5002
3608.00      19.2750
3610.00      23.1308
3612.00      30.7824
3614.00      39.1533
3616.00      47.6608
3618.00      45.4215
3620.00      35.4784
3622.00      33.7382
3624.00      36.7220
3626.00      37.2409
3628.00      41.6836
3630.00      52.0482
3632.00      56.5917
3634.00      54.3473
3636.00      52.9927
3638.00      51.6698
3640.00      52.0128
3642.00      49.3477
3644.00      43.6472
3646.00      43.1168
3648.00      41.5301
3650.00      36.8921
3652.00      38.5730
3654.00      44.4405
3656.00      39.4089
3658.00      39.4231
3660.00      40.8878
3662.00      36.6493
3664.00      28.3592
3666.00      30.7814
3668.00      24.8955
3670.00      24.3870
3672.00      26.2752
3674.00      31.7042
3676.00      35.3347
3678.00      37.3123
3680.00      31.8752
3682.00      27.1090
3684.00      28.6101
3686.00      22.1014
3688.00      21.9854
3690.00      29.5820
3692.00      34.0780
3694.00      34.8066
3696.00      39.1709
3698.00      44.0342
3700.00      44.8584
3702.00      47.2986
3704.00      47.3690
3706.00      50.3532
3708.00      50.4553
3710.00      51.0381
3712.00      51.3547
3714.00      51.0137
3716.00      49.2603
3718.00      49.8544
3720.00      48.5431
3722.00      46.9236
3724.00      47.4831
3726.00      49.0689
3728.00      47.6313
3730.00      47.8014
3732.00      49.2312
3734.00      49.5012
3736.00      49.5451
3738.00      50.0538
3740.00      48.7133
3742.00      47.7725
3744.00      44.4993
3746.00      42.3334
3748.00      37.2914
3750.00      33.1958
3752.00      31.5432
3754.00      35.0600
3756.00      37.7750
3758.00      41.8146
3760.00      41.3179
3762.00      40.1864
3764.00      38.5442
3766.00      37.3161
3768.00      32.6003
3770.00      31.1613
3772.00      29.9877
3774.00      29.4491
3776.00      24.9596
3778.00      24.4236
3780.00      30.5252
3782.00      34.8164
3784.00      34.0961
3786.00      31.1050
3788.00      28.2594
3790.00      21.4531
3792.00      16.7446
3794.00      15.1821
3796.00      15.9084
3798.00      16.3133
3800.00      15.1085
3802.00      11.5997
3804.00      7.30791
3806.00      7.43119
3808.00      10.0194
3810.00      17.5418
3812.00      26.6677
3814.00      35.3052
3816.00      39.3133
3818.00      36.5106
3820.00      37.2785
3822.00      35.8072
3824.00      32.2862
3826.00      32.9286
3828.00      41.0499
3830.00      43.2993
3832.00      45.4822
3834.00      50.3704
3836.00      52.0637
3838.00      50.1761
3840.00      42.7700
3842.00      35.3839
3844.00      30.2646
3846.00      26.4875
3848.00      26.2895
3850.00      30.4344
3852.00      33.4822
3854.00      33.6806
3856.00      34.1508
3858.00      35.2949
3860.00      38.5176
3862.00      43.6655
3864.00      47.7825
3866.00      51.5297
3868.00      51.7743
3870.00      52.0124
3872.00      52.3518
3874.00      53.1076
3876.00      53.7910
3878.00      54.5024
3880.00      54.5205
3882.00      53.9769
3884.00      52.5634
3886.00      51.3972
3888.00      50.5513
3890.00      49.1079
3892.00      49.0399
3894.00      49.3476
3896.00      50.4305
3898.00      50.7979
3900.00      50.5638
3902.00      49.4589
3904.00      48.0582
3906.00      46.9861
3908.00      47.0521
3910.00      48.5195
3912.00      49.9515
3914.00      51.8745
3916.00      51.8358
3918.00      50.1290
3920.00      47.1672
3922.00      41.1916
3924.00      32.5782
3926.00      31.6736
3928.00      33.1483
3930.00      34.9474
3932.00      40.5971
3934.00      49.3776
3936.00      51.7052
3938.00      49.4576
3940.00      47.2395
3942.00      46.5717
3944.00      46.3548
3946.00      46.7854
3948.00      49.1967
3950.00      51.9732
3952.00      53.0060
3954.00      52.5548
3956.00      52.4186
3958.00      52.4165
3960.00      52.2364
3962.00      51.9661
3964.00      51.3858
3966.00      50.6296
3968.00      50.6540
3970.00      50.8110
3972.00      51.2345
3974.00      52.3543
3976.00      52.2729
3978.00      50.4520
3980.00      43.2163
3982.00      41.1830
3984.00      41.0186
3986.00      41.7422
3988.00      43.0464
3990.00      49.2553
3992.00      52.0130
3994.00      52.0453
3996.00      50.5926
3998.00      49.2464
4000.00      47.6821
4002.00      46.1829
4004.00      46.1030
4006.00      46.3094
4008.00      41.4577
4010.00      39.3701
4012.00      38.8564
4014.00      38.3971
4016.00      37.6856
4018.00      40.0588
4020.00      36.3495
4022.00      34.7387
4024.00      33.1944
4026.00      29.9692
4028.00      31.0486
4030.00      39.1019
4032.00      43.3736
4034.00      44.6835
4036.00      45.8345
4038.00      46.7282
4040.00      46.3189
4042.00      46.2889
4044.00      45.7674
4046.00      46.6499
4048.00      47.4035
4050.00      43.5445
4052.00      34.5632
4054.00      29.4041
4056.00      26.9656
4058.00      26.2495
4060.00      28.3687
4062.00      36.8359
4064.00      42.3356
4066.00      44.2240
4068.00      44.7974
4070.00      43.8000
4072.00      42.7235
4074.00      42.7834
4076.00      44.7982
4078.00      45.5277
4080.00      46.1887
4082.00      46.1424
4084.00      42.9379
4086.00      43.4046
4088.00      42.9594
4090.00      38.3027
4092.00      38.7127
4094.00      42.5776
4096.00      37.7556
4098.00      31.3966
4100.00      36.5289
4102.00      36.3990
4104.00      33.6752
4106.00      36.7668
4108.00      43.4750
4110.00      43.6029
4112.00      41.6230
4114.00      40.1028
4116.00      40.8732
4118.00      38.6307
4120.00      37.9340
4122.00      38.0089
4124.00      41.0645
4126.00      40.9488
4128.00      43.0245
4130.00      42.0830
4132.00      36.9477
4134.00      29.2143
4136.00      20.4730
4138.00      17.8898
4140.00      19.3220
4142.00      25.7296
4144.00      33.7711
4146.00      42.7002
4148.00      42.8286
4150.00      41.0151
4152.00      37.9182
4154.00      35.4394
4156.00      34.6515
4158.00      36.1061
4160.00      37.5990
4162.00      39.2312
4164.00      42.2338
4166.00      37.5321
4168.00      36.9586
4170.00      35.6261
4172.00      33.9702
4174.00      34.0013
4176.00      39.1686
4178.00      40.4649
4180.00      42.2522
4182.00      42.6581
4184.00      44.3422
4186.00      43.6489
4188.00      44.1661
4190.00      45.6607
4192.00      47.8519
4194.00      48.3960
4196.00      49.5509
4198.00      50.2660
4200.00      45.2630
4202.00      41.5299
4204.00      37.9698
4206.00      36.3431
4208.00      35.0746
4210.00      38.7281
4212.00      40.2122
4214.00      37.4603
4216.00      33.4895
4218.00      33.9969
4220.00      33.6500
4222.00      35.6399
4224.00      40.7714
4226.00      45.4561
4228.00      45.6896
4230.00      44.2791
4232.00      43.3701
4234.00      43.4068
4236.00      44.4555
4238.00      43.5693
4240.00      44.8756
4242.00      45.2073
4244.00      41.7009
4246.00      41.2990
4248.00      41.9100
4250.00      41.5330
4252.00      42.1061
4254.00      44.9675
4256.00      46.1100
4258.00      46.4948
4260.00      47.3549
4262.00      47.3862
4264.00      47.4497
4266.00      43.9784
4268.00      40.4427
4270.00      36.3378
4272.00      36.2736
4274.00      35.5017
4276.00      37.7732
4278.00      38.1613
4280.00      36.9377
4282.00      30.4386
4284.00      24.4892
4286.00      23.6656
4288.00      24.3418
4290.00      29.3716
4292.00      36.3160
4294.00      43.0707
4296.00      43.4937
4298.00      45.0702
4300.00      45.4746
4302.00      42.5809
4304.00      41.6795
4306.00      43.2574
4308.00      42.9843
4310.00      42.9647
4312.00      44.9586
4314.00      45.3102
4316.00      44.6090
4318.00      45.5899
4320.00      43.6354
4322.00      42.8303
4324.00      43.9826
4326.00      43.9518
4328.00      44.0287
4330.00      46.0787
4332.00      46.3863
4334.00      40.1130
4336.00      39.3806
4338.00      35.4807
4340.00      33.5712
4342.00      30.6971
4344.00      35.4147
4346.00      37.1473
4348.00      39.8131
4350.00      41.3554
4352.00      44.6816
4354.00      46.2186
4356.00      45.4358
4358.00      45.3558
4360.00      45.5525
4362.00      43.8610
4364.00      36.0269
4366.00      32.7980
4368.00      28.5457
4370.00      20.9403
4372.00      17.8199
4374.00      24.2822
4376.00      28.4691
4378.00      32.2466
4380.00      35.1055
4382.00      35.3482
4384.00      35.9393
4386.00      35.8700
4388.00      35.6870
4390.00      39.3066
4392.00      43.6654
4394.00      44.0866
4396.00      44.8068
4398.00      45.1627
4400.00      45.8071
4402.00      44.9585
4404.00      40.8012
4406.00      38.7997
4408.00      38.3603
4410.00      34.2773
4412.00      28.4328
4414.00      29.3022
4416.00      30.5866
4418.00      27.8565
4420.00      26.4867
4422.00      26.4984
4424.00      23.7497
4426.00      17.7785
4428.00      13.4875
4430.00      14.9997
4432.00      20.9366
4434.00      26.7508
4436.00      30.7182
4438.00      32.5133
4440.00      31.2488
4442.00      24.7475
4444.00      16.7546
4446.00      10.7596
4448.00      11.6660
4450.00      13.1206
4452.00      17.8711
4454.00      25.6712
4456.00      32.1609
4458.00      30.0447
4460.00      30.2221
4462.00      30.4542
4464.00      29.6566
4466.00      29.2072
4468.00      32.7546
4470.00      29.8410
4472.00      23.1313
4474.00      20.0212
4476.00      17.5499
4478.00      14.7235
4480.00      15.5477
4482.00      18.8381
4484.00      18.3431
4486.00      16.0747
4488.00      12.7351
4490.00      10.0675
4492.00      7.15729
4494.00      4.20834
4496.00      1.87166
4498.00      1.43554
4500.00     0.864110
4502.00     0.261705
4504.00    0.0137519
4506.00   -0.0938757
4508.00   -0.0763014
4510.00   -0.0612918
4512.00   -0.0600152
4514.00   -0.0395486
4516.00    0.0360116
4518.00     0.236535
4520.00     0.712653
4522.00      1.81664
4524.00      3.43154
4526.00      5.42986
4528.00      7.92105
4530.00      11.0218
4532.00      14.0001
4534.00      16.3914
4536.00      19.1355
4538.00      21.9308
4540.00      23.3887
4542.00      24.9876
4544.00      27.2803
4546.00      29.1948
4548.00      30.6678
4550.00      32.6239
4552.00      34.2831
4554.00      35.2942
4556.00      36.0395
4558.00      36.8218
4560.00      37.5794
4562.00      38.2747
4564.00      38.9185
4566.00      39.6341
4568.00      40.1506
4570.00      40.4982
4572.00      40.9790
4574.00      41.4014
4576.00      41.6700
4578.00      41.9458
4580.00      42.3660
4582.00      42.4505
4584.00      42.6432
4586.00      42.7629
4588.00      42.9140
4590.00      42.3380
4592.00      41.8701
4594.00      41.9609
4596.00      41.8779
4598.00      41.7757
4600.00      42.2219
4602.00      43.0119
4604.00      42.9562
4606.00      42.6633
4608.00      42.9335
4610.00      43.2023
4612.00      43.3612
4614.00      43.5857
4616.00      44.4255
4618.00      44.4796
4620.00      44.4174
4622.00      44.4855
4624.00      44.5321
4626.00      44.4637
4628.00      44.5707
4630.00      44.7154
4632.00      44.6823
4634.00      44.3759
4636.00      43.7662
4638.00      43.6016
4640.00      43.6088
4642.00      43.6744
4644.00      43.8417
4646.00      44.0174
4648.00      43.1685
4650.00      42.9840
4652.00      42.9296
4654.00      43.0825
4656.00      43.4230
4658.00      44.3392
4660.00      44.6105
4662.00      44.7426
4664.00      44.7911
4666.00      44.4616
4668.00      43.2377
4670.00      37.4073
4672.00      29.4704
4674.00      26.8770
4676.00      27.1938
4678.00      28.3188
4680.00      33.7416
4682.00      41.8061
4684.00      44.6527
4686.00      38.8668
4688.00      30.8564
4690.00      27.0630
4692.00      26.8428
4694.00      27.0057
4696.00      32.1073
4698.00      40.2036
4700.00      44.4744
4702.00      44.6744
4704.00      44.6346
4706.00      44.7041
4708.00      44.6507
4710.00      44.7300
4712.00      44.7138
4714.00      44.5914
4716.00      44.4432
4718.00      44.4337
4720.00      44.3475
4722.00      44.1925
4724.00      44.1964
4726.00      44.1869
4728.00      44.0999
4730.00      44.0005
4732.00      44.0410
4734.00      43.8875
4736.00      43.8255
4738.00      43.3798
4740.00      42.8217
4742.00      42.1328
4744.00      42.1167
4746.00      42.1696
4748.00      42.4695
4750.00      43.0075
4752.00      43.6953
4754.00      43.6616
4756.00      43.4597
4758.00      43.4470
4760.00      43.4120
4762.00      43.3256
4764.00      43.2900
4766.00      43.2547
4768.00      43.1369
4770.00      42.7393
4772.00      42.3681
4774.00      42.2968
4776.00      42.2934
4778.00      42.2351
4780.00      42.5512
4782.00      42.7853
4784.00      42.8073
4786.00      42.7424
4788.00      42.6504
4790.00      42.5615
4792.00      42.5285
4794.00      42.4994
4796.00      42.5811
4798.00      42.6037
4800.00      42.5700
4802.00      42.5180
4804.00      42.5291
4806.00      42.4103
4808.00      42.3994
4810.00      42.4161
4812.00      42.3982
4814.00      42.3212
4816.00      42.2689
4818.00      42.0320
4820.00      41.7274
4822.00      41.6906
4824.00      39.9823
4826.00      35.3458
4828.00      30.4821
4830.00      30.5334
4832.00      29.7841
4834.00      27.8728
4836.00      27.0689
4838.00      30.5814
4840.00      29.8933
4842.00      29.3055
4844.00      31.8896
4846.00      36.9778
4848.00      39.0834
4850.00      39.4937
4852.00      38.5257
4854.00      36.8064
4856.00      36.8375
4858.00      36.9662
4860.00      37.4138
4862.00      39.4018
4864.00      41.7673
4866.00      42.0015
4868.00      41.9535
4870.00      41.9532
4872.00      41.9592
4874.00      41.8887
4876.00      41.8273
4878.00      41.8336
4880.00      41.7109
4882.00      41.5379
4884.00      41.2438
4886.00      41.1500
4888.00      41.1904
4890.00      41.2953
4892.00      41.4847
4894.00      41.8155
4896.00      41.9456
4898.00      41.9567
4900.00      41.9724
4902.00      41.9188
4904.00      41.8263
4906.00      41.7007
4908.00      41.5591
4910.00      41.4522
4912.00      41.3476
4914.00      41.3425
4916.00      41.3539
4918.00      41.4951
4920.00      41.5703
4922.00      41.6985
4924.00      41.6262
4926.00      41.6739
4928.00      41.5091
4930.00      41.3666
4932.00      41.3032
4934.00      41.3039
4936.00      41.2069
4938.00      41.1150
4940.00      41.0142
4942.00      40.9178
4944.00      37.9689
4946.00      31.4041
4948.00      24.2958
4950.00      18.9567
4952.00      15.6280
4954.00      17.7594
4956.00      24.0655
4958.00      31.3206
4960.00      36.8152
4962.00      40.3838
4964.00      40.7455
4966.00      40.6591
4968.00      40.6205
4970.00      40.6323
4972.00      40.6430
4974.00      40.5216
4976.00      40.5021
4978.00      40.4456
4980.00      40.3617
4982.00      40.2664
4984.00      40.2447
4986.00      40.3094
4988.00      40.2622
4990.00      40.2622
4992.00      40.3549
4994.00      40.3914
4996.00      40.2771
4998.00      39.8524
5000.00      39.7053
5002.00      39.6750
5004.00      39.6306
5006.00      39.3469
5008.00      39.5975
5010.00      39.6796
5012.00      39.5185
5014.00      39.3915
5016.00      39.6472
5018.00      39.7283
5020.00      39.7397
5022.00      39.7670
5024.00      39.8388
5026.00      39.7677
5028.00      39.6481
5030.00      39.5781
5032.00      39.6882
5034.00      39.6668
5036.00      39.6051
5038.00      39.6879
5040.00      39.6414
5042.00      39.4754
5044.00      39.3134
5046.00      39.2981
5048.00      39.2133
5050.00      39.2334
5052.00      39.2172
5054.00      39.1599
5056.00      39.1562
5058.00      39.0835
5060.00      38.9290
5062.00      38.8690
5064.00      38.8191
5066.00      38.6738
5068.00      38.6204
5070.00      38.5942
5072.00      38.4811
5074.00      38.4344
5076.00      38.4623
5078.00      38.4232
5080.00      38.2296
5082.00      38.1888
5084.00      38.1644
5086.00      38.1223
5088.00      38.0420
5090.00      37.8247
5092.00      37.7624
5094.00      37.6608
5096.00      37.3836
5098.00      36.5516
5100.00      36.8084
5102.00      36.8107
5104.00      36.9040
5106.00      37.0875
5108.00      37.8789
5110.00      38.0007
5112.00      37.9961
5114.00      37.9437
5116.00      38.0441
5118.00      38.1208
5120.00      37.8834
5122.00      37.6816
5124.00      37.6710
5126.00      37.4063
5128.00      37.2135
5130.00      36.7664
5132.00      36.7800
5134.00      36.8111
5136.00      36.7898
5138.00      36.7639
5140.00      37.1430
5142.00      37.3259
5144.00      37.2020
5146.00      37.2270
5148.00      37.2902
5150.00      37.3086
5152.00      37.2122
5154.00      37.2465
5156.00      37.1906
5158.00      37.0185
5160.00      36.9594
5162.00      36.9510
5164.00      34.5587
5166.00      29.3314
5168.00      27.9128
5170.00      27.8814
5172.00      27.8057
5174.00      29.6902
5176.00      34.9712
5178.00      36.7561
5180.00      36.8351
5182.00      36.9036
5184.00      37.0195
5186.00      37.1118
5188.00      37.1444
5190.00      37.0698
5192.00      37.0723
5194.00      36.7189
5196.00      36.1698
5198.00      32.9441
5200.00      29.2849
5202.00      28.6640
5204.00      28.7029
5206.00      29.1332
5208.00      31.7746
5210.00      35.6218
5212.00      36.2660
5214.00      36.3398
5216.00      36.3005
5218.00      36.0575
5220.00      35.9091
5222.00      36.0075
5224.00      36.0013
5226.00      35.8754
5228.00      35.8881
5230.00      36.2575
5232.00      36.2574
5234.00      36.2138
5236.00      36.2938
5238.00      36.4050
5240.00      36.3931
5242.00      36.3143
5244.00      36.3695
5246.00      36.3558
5248.00      36.4081
5250.00      36.3667
5252.00      36.1195
5254.00      35.1503
5256.00      34.4268
5258.00      34.2721
5260.00      34.2620
5262.00      34.4842
5264.00      34.6852
5266.00      34.4602
5268.00      33.8537
5270.00      33.6983
5272.00      33.3816
5274.00      33.3032
5276.00      33.8836
5278.00      34.4482
5280.00      34.5302
5282.00      34.6614
5284.00      35.1015
5286.00      35.4286
5288.00      35.5613
5290.00      35.5170
5292.00      35.5272
5294.00      35.6365
5296.00      35.6177
5298.00      35.5152
5300.00      35.5507
5302.00      35.5299
5304.00      35.5082
5306.00      35.4259
5308.00      35.2755
5310.00      35.1966
5312.00      35.0314
5314.00      34.8816
5316.00      34.8317
5318.00      34.9813
5320.00      34.9754
5322.00      34.7828
5324.00      34.6596
5326.00      34.8045
5328.00      34.7868
5330.00      34.7642
5332.00      35.0560
5334.00      35.2930
5336.00      35.1604
5338.00      34.7465
5340.00      33.2245
5342.00      31.6388
5344.00      31.2522
5346.00      31.2755
5348.00      31.6232
5350.00      32.9863
5352.00      34.6938
5354.00      34.9127
5356.00      34.8493
5358.00      34.8067
5360.00      34.8772
5362.00      34.8120
5364.00      34.8866
5366.00      34.8686
5368.00      34.7824
5370.00      34.7004
5372.00      34.6275
5374.00      34.5719
5376.00      34.6321
5378.00      34.7032
5380.00      34.6719
5382.00      34.6378
5384.00      34.6777
5386.00      34.6113
5388.00      34.4858
5390.00      34.3904
5392.00      34.3803
5394.00      34.1961
5396.00      34.0623
5398.00      34.0178
5400.00      33.9405
5402.00      33.9163
5404.00      33.9591
5406.00      33.9384
5408.00      33.8481
5410.00      33.8343
5412.00      33.7973
5414.00      33.7442
5416.00      33.7837
5418.00      33.8770
5420.00      33.9198
5422.00      33.9166
5424.00      33.7989
5426.00      33.7257
5428.00      33.6108
5430.00      33.5225
5432.00      33.5133
5434.00      33.5535
5436.00      33.5592
5438.00      33.5276
5440.00      33.4765
5442.00      33.3801
5444.00      33.2335
5446.00      33.1599
5448.00      33.1054
5450.00      33.0036
5452.00      32.9322
5454.00      32.9222
5456.00      32.7023
5458.00      32.4752
5460.00      32.5175
5462.00      32.3754
5464.00      32.2851
5466.00      32.2017
5468.00      32.3548
5470.00      32.2959
5472.00      32.3538
5474.00      32.3327
5476.00      32.4180
5478.00      32.5219
5480.00      32.5688
5482.00      32.6194
5484.00      32.7552
5486.00      32.9569
5488.00      32.9525
5490.00      32.9351
5492.00      33.0052
5494.00      33.0671
5496.00      32.9946
5498.00      32.9895
5500.00      32.8937
5502.00      32.7360
5504.00      32.4847
5506.00      32.4560
5508.00      32.4331
5510.00      32.3785
5512.00      32.2756
5514.00      32.3138
5516.00      32.1701
5518.00      32.0069
5520.00      32.0044
5522.00      32.1168
5524.00      31.9738
5526.00      31.9240
5528.00      31.8791
5530.00      31.8698
5532.00      31.7688
5534.00      31.7976
5536.00      31.7302
5538.00      31.8382
5540.00      31.6695
5542.00      31.4843
5544.00      31.4491
5546.00      31.5869
5548.00      31.4534
5550.00      31.5041
5552.00      31.4921
5554.00      30.9887
5556.00      30.5997
5558.00      30.2826
5560.00      29.9400
5562.00      29.8319
5564.00      30.0222
5566.00      29.9573
5568.00      30.0100
5570.00      30.1915
5572.00      29.9679
5574.00      29.8485
5576.00      29.9259
5578.00      30.0773
5580.00      30.0575
5582.00      30.1485
5584.00      30.2508
5586.00      30.3271
5588.00      30.0240
5590.00      29.8968
5592.00      29.8164
5594.00      29.8606
5596.00      29.6598
5598.00      29.6415
5600.00      30.3519
5602.00      31.6209
5604.00      32.2633
5606.00      31.9190
5608.00      31.9211
5610.00      31.7744
5612.00      31.4074
5614.00      31.4468
5616.00      31.3855
5618.00      31.2517
5620.00      31.1967
5622.00      31.2805
5624.00      31.1591
5626.00      31.2122
5628.00      31.3431
5630.00      31.4204
5632.00      31.4191
5634.00      31.3899
5636.00      31.2859
5638.00      31.2218
5640.00      31.1216
5642.00      30.9768
5644.00      30.9191
5646.00      30.9314
5648.00      30.8221
5650.00      30.8639
5652.00      30.9483
5654.00      30.1437
5656.00      29.0726
5658.00      26.0454
5660.00      21.6829
5662.00      18.8250
5664.00      17.4508
5666.00      17.8950
5668.00      19.5093
5670.00      22.8755
5672.00      24.4560
5674.00      26.0623
5676.00      26.5917
5678.00      27.7280
5680.00      28.5815
5682.00      28.5216
5684.00      26.7016
5686.00      24.3169
5688.00      24.1075
5690.00      24.2035
5692.00      25.3647
5694.00      27.8868
5696.00      30.4530
5698.00      30.8613
5700.00      30.8356
5702.00      30.7392
5704.00      30.6036
5706.00      30.5463
5708.00      30.4607
5710.00      30.4086
5712.00      30.4036
5714.00      30.3991
5716.00      30.1325
5718.00      29.7889
5720.00      29.8569
5722.00      29.8560
5724.00      29.8310
5726.00      29.7269
5728.00      30.0116
5730.00      29.8592
5732.00      29.7368
5734.00      29.6793
5736.00      29.0381
5738.00      24.3870
5740.00      21.4947
5742.00      21.0652
5744.00      21.2142
5746.00      20.6123
5748.00      20.5324
5750.00      22.2709
5752.00      22.7891
5754.00      22.6989
5756.00      23.6178
5758.00      28.0547
5760.00      29.8622
5762.00      30.0021
5764.00      30.0622
5766.00      29.8834
5768.00      29.7741
5770.00      29.6988
5772.00      29.7411
5774.00      29.7863
5776.00      29.9669
5778.00      30.1105
5780.00      29.9605
5782.00      29.8018
5784.00      29.8128
5786.00      29.6647
5788.00      29.7316
5790.00      29.9957
5792.00      30.2183
5794.00      30.0524
5796.00      29.9321
5798.00      29.2075
5800.00      28.8120
5802.00      28.6899
5804.00      28.6374
5806.00      28.6630
5808.00      29.1957
5810.00      29.4553
5812.00      29.4499
5814.00      29.6101
5816.00      29.7146
5818.00      29.7814
5820.00      29.8406
5822.00      29.9192
5824.00      29.7727
5826.00      29.4108
5828.00      28.0189
5830.00      27.0275
5832.00      26.7640
5834.00      26.8363
5836.00      27.1632
5838.00      28.3842
5840.00      29.5346
5842.00      29.7586
5844.00      29.7733
5846.00      29.7316
5848.00      29.7613
5850.00      29.7794
5852.00      29.7368
5854.00      29.6742
5856.00      29.6572
5858.00      29.6228
5860.00      29.6656
5862.00      29.6644
5864.00      29.6069
5866.00      29.5587
5868.00      29.4376
5870.00      29.3909
5872.00      29.4923
5874.00      29.5007
5876.00      29.4138
5878.00      29.4525
5880.00      29.4161
5882.00      29.3275
5884.00      29.2212
5886.00      29.1312
5888.00      28.8452
5890.00      28.8059
5892.00      28.6813
5894.00      28.6945
5896.00      28.7054
5898.00      28.8520
5900.00      28.8298
5902.00      28.8281
5904.00      28.7901
5906.00      28.8087
5908.00      28.8789
5910.00      28.8610
5912.00      28.7753
5914.00      28.7595
5916.00      28.6414
5918.00      28.5955
5920.00      28.6045
5922.00      28.5544
5924.00      28.5944
5926.00      28.7097
5928.00      28.7014
5930.00      28.7414
5932.00      28.8465
5934.00      28.8241
5936.00      28.8075
5938.00      28.8305
5940.00      28.7524
5942.00      28.7525
5944.00      28.6720
5946.00      28.6753
5948.00      28.7984
5950.00      28.8925
5952.00      28.8750
5954.00      29.0655
5956.00      29.1895
5958.00      29.2095
5960.00      28.9277
5962.00      27.8929
5964.00      25.5803
5966.00      25.0209
5968.00      24.9192
5970.00      25.0456
5972.00      25.4398
5974.00      26.1459
5976.00      26.1812
5978.00      26.0410
5980.00      25.8558
5982.00      26.2385
5984.00      27.7935
5986.00      28.4796
5988.00      27.9769
5990.00      27.4468
5992.00      27.2456
5994.00      27.1499
5996.00      27.0401
5998.00      27.3440
6000.00      27.9992
6002.00      28.1173
6004.00      28.1107
6006.00      28.1121
6008.00      28.2299
6010.00      28.0993
6012.00      27.9011
6014.00      27.7472
6016.00      27.7141
6018.00      27.7056
6020.00      27.8327
6022.00      27.9338
6024.00      28.0387
6026.00      28.0458
6028.00      27.9735
6030.00      27.9408
6032.00      27.9721
6034.00      27.9591
6036.00      27.9288
6038.00      27.8066
6040.00      27.6216
6042.00      27.5577
6044.00      27.5820
6046.00      27.5594
6048.00      27.5820
6050.00      27.6307
6052.00      27.7363
6054.00      27.7857
6056.00      27.7893
6058.00      27.9168
6060.00      28.0162
6062.00      27.9807
6064.00      27.9040
6066.00      27.9105
6068.00      27.7095
6070.00      27.5675
6072.00      27.4778
6074.00      27.4817
6076.00      27.4907
6078.00      27.5397
6080.00      27.6320
6082.00      27.7314
6084.00      27.7427
6086.00      27.7787
6088.00      27.8771
6090.00      27.7897
6092.00      27.8182
6094.00      27.7799
6096.00      27.6978
6098.00      27.6173
6100.00      27.6192
6102.00      27.6141
6104.00      27.5742
6106.00      27.4928
6108.00      27.4422
6110.00      27.4750
6112.00      27.5011
6114.00      27.5874
6116.00      27.6193
6118.00      27.5638
6120.00      27.5856
6122.00      27.5751
6124.00      27.3609
6126.00      27.3269
6128.00      27.3565
6130.00      27.3272
6132.00      27.1601
6134.00      27.1498
6136.00      27.1204
6138.00      27.0897
6140.00      27.0187
6142.00      27.0159
6144.00      26.9809
6146.00      26.9822
6148.00      26.9385
6150.00      26.8563
6152.00      26.9014
6154.00      26.9249
6156.00      26.9213
6158.00      26.9350
6160.00      27.0239
6162.00      26.9457
6164.00      26.9816
6166.00      26.9363
6168.00      26.8541
6170.00      26.7682
6172.00      26.7739
6174.00      26.7980
6176.00      26.7971
6178.00      26.7965
6180.00      26.8448
6182.00      26.9130
6184.00      26.8240
6186.00      26.7486
6188.00      26.7688
6190.00      26.3949
6192.00      23.2626
6194.00      19.1648
6196.00      16.7619
6198.00      16.7092
6200.00      16.9852
6202.00      19.7678
6204.00      23.8165
6206.00      26.6388
6208.00      26.8530
6210.00      26.8426
6212.00      26.9213
6214.00      27.0430
6216.00      27.0619
6218.00      26.9595
6220.00      26.9648
6222.00      26.9439
6224.00      26.8413
6226.00      26.8086
6228.00      26.7813
6230.00      26.7486
6232.00      26.6776
6234.00      26.6988
6236.00      26.6853
6238.00      26.6779
6240.00      26.7274
6242.00      26.7294
6244.00      26.6736
6246.00      26.7183
6248.00      26.6628
6250.00      26.6040
6252.00      26.5343
6254.00      26.5512
6256.00      26.6038
6258.00      26.6718
6260.00      26.6934
6262.00      26.5468
6264.00      25.9765
6266.00      24.6940
6268.00      21.1050
6270.00      18.5679
6272.00      17.1817
6274.00      17.1095
6276.00      17.7225
6278.00      20.8385
6280.00      23.0096
6282.00      23.5535
6284.00      21.5045
6286.00      19.7479
6288.00      18.8646
6290.00      18.9730
6292.00      19.6390
6294.00      22.1011
6296.00      24.2478
6298.00      25.3757
6300.00      25.7594
6302.00      25.8172
6304.00      25.8391
6306.00      25.8098
6308.00      25.7033
6310.00      25.4522
6312.00      25.2144
6314.00      25.2445
6316.00      25.3209
6318.00      25.4275
6320.00      25.6900
6322.00      25.9027
6324.00      26.0264
6326.00      26.0108
6328.00      26.0038
6330.00      26.0045
6332.00      26.0365
6334.00      25.9774
6336.00      25.9707
6338.00      25.9479
6340.00      25.8040
6342.00      25.8238
6344.00      25.8303
6346.00      25.8671
6348.00      26.0349
6350.00      26.3268
6352.00      26.5126
6354.00      26.6704
6356.00      26.7167
6358.00      26.6273
6360.00      26.2838
6362.00      26.1206
6364.00      25.9847
6366.00      25.9735
6368.00      25.9296
6370.00      26.0414
6372.00      26.0050
6374.00      25.8608
6376.00      25.6593
6378.00      25.4507
6380.00      25.3680
6382.00      25.2808
6384.00      25.3374
6386.00      25.4066
6388.00      25.5381
6390.00      25.6167
6392.00      25.6404
6394.00      25.2017
6396.00      24.5224
6398.00      24.3145
6400.00      24.3221
6402.00      24.3518
6404.00      24.7350
6406.00      25.4230
6408.00      25.7352
6410.00      25.8831
6412.00      25.8561
6414.00      25.9083
6416.00      25.8479
6418.00      25.7716
6420.00      25.6224
6422.00      25.5438
6424.00      25.4750
6426.00      25.4383
6428.00      25.4644
6430.00      25.4433
6432.00      25.4835
6434.00      25.5032
6436.00      25.5877
6438.00      25.6130
6440.00      25.5780
6442.00      25.5019
6444.00      25.4962
6446.00      25.4556
6448.00      25.3778
6450.00      25.3939
6452.00      25.4772
6454.00      25.4366
6456.00      25.3594
6458.00      25.1745
6460.00      25.0889
6462.00      25.1180
6464.00      25.1609
6466.00      25.2478
6468.00      25.4064
6470.00      25.4474
6472.00      25.3883
6474.00      25.3668
6476.00      25.3549
6478.00      25.3174
6480.00      25.2937
6482.00      25.2801
6484.00      25.2845
6486.00      25.2271
6488.00      25.2861
6490.00      25.3080
6492.00      25.2484
6494.00      25.1286
6496.00      24.9629
6498.00      24.9048
6500.00      24.8367
6502.00      24.9141
6504.00      25.0105
6506.00      25.1996
6508.00      25.2724
6510.00      25.3234
6512.00      25.2880
6514.00      25.2300
6516.00      25.1715
6518.00      25.2070
6520.00      25.2280
6522.00      25.2950
6524.00      25.3671
6526.00      25.4168
6528.00      25.3588
6530.00      25.2836
6532.00      25.2038
6534.00      25.1450
6536.00      25.1031
6538.00      25.1265
6540.00      25.1381
6542.00      25.1675
6544.00      25.1506
6546.00      25.1389
6548.00      25.1036
6550.00      25.0928
6552.00      25.0613
6554.00      25.0360
6556.00      25.0150
6558.00      25.0034
6560.00      25.0357
6562.00      25.0284
6564.00      25.0658
6566.00      25.0933
6568.00      25.0486
6570.00      24.9734
6572.00      24.9695
6574.00      24.9526
6576.00      24.9529
6578.00      25.0209
6580.00      25.0680
6582.00      25.0298
6584.00      25.0331
6586.00      25.0146
6588.00      24.9196
6590.00      24.8450
6592.00      24.8905
6594.00      24.8928
6596.00      24.8756
6598.00      24.9251
6600.00      24.9768
6602.00      24.9279
6604.00      24.8999
6606.00      24.8744
6608.00      24.8351
6610.00      24.7585
6612.00      24.7468
6614.00      24.7324
6616.00      24.7195
6618.00      24.6243
6620.00      24.6568
6622.00      24.6438
6624.00      24.5336
6626.00      24.4737
6628.00      24.5576
6630.00      24.5184
6632.00      24.4573
6634.00      24.4910
6636.00      24.4621
6638.00      24.4054
6640.00      24.3593
6642.00      24.3779
6644.00      24.4184
6646.00      24.4275
6648.00      24.4607
6650.00      24.4606
6652.00      24.4090
6654.00      24.3135
6656.00      24.2952
6658.00      24.2843
6660.00      24.2770
6662.00      24.3269
6664.00      24.3271
6666.00      24.3673
6668.00      24.3589
6670.00      24.3390
6672.00      24.2783
6674.00      24.2979
6676.00      24.2792
6678.00      24.2554
6680.00      24.2225
6682.00      24.2748
6684.00      24.3108
6686.00      24.2869
6688.00      24.2301
6690.00      24.3055
6692.00      24.1977
6694.00      24.1772
6696.00      24.0538
6698.00      24.0864
6700.00      23.9453
6702.00      23.9601
6704.00      23.5359
6706.00      23.5003
6708.00      23.5083
6710.00      23.5272
6712.00      23.5142
6714.00      23.8100
6716.00      23.9984
6718.00      23.9381
6720.00      23.9611
6722.00      23.9769
6724.00      24.0180
6726.00      24.0318
6728.00      24.0538
6730.00      24.0806
6732.00      24.0863
6734.00      24.0603
6736.00      24.0628
6738.00      24.0450
6740.00      23.9694
6742.00      23.9356
6744.00      23.9565
6746.00      23.8895
6748.00      23.8337
6750.00      23.8633
6752.00      23.9240
6754.00      23.8879
6756.00      23.8717
6758.00      23.9217
6760.00      23.9439
6762.00      23.8906
6764.00      23.8416
6766.00      23.8348
6768.00      23.8066
6770.00      23.7773
6772.00      23.7439
6774.00      23.7321
6776.00      23.7572
6778.00      23.7723
6780.00      23.7308
6782.00      23.7351
6784.00      23.7653
6786.00      23.7595
6788.00      23.6903
6790.00      23.7202
6792.00      23.6922
6794.00      23.6157
6796.00      23.5630
6798.00      23.5384
6800.00      23.4672
6802.00      23.4819
6804.00      23.5398
6806.00      23.5580
6808.00      23.5925
6810.00      23.6484
6812.00      23.6122
6814.00      23.5298
6816.00      23.5031
6818.00      23.4812
6820.00      23.4061
6822.00      23.3353
6824.00      23.3658
6826.00      23.4378
6828.00      23.4726
6830.00      23.4667
6832.00      23.5619
6834.00      23.5851
6836.00      23.5475
6838.00      23.5100
6840.00      23.5963
6842.00      23.5511
6844.00      23.4835
6846.00      23.4547
6848.00      23.4147
6850.00      23.3306
6852.00      23.2972
6854.00      23.3450
6856.00      23.3381
6858.00      23.3256
6860.00      23.3151
6862.00      23.3507
6864.00      22.6876
6866.00      20.9915
6868.00      19.7102
6870.00      18.5214
6872.00      17.4654
6874.00      16.6306
6876.00      16.4632
6878.00      17.3420
6880.00      18.4419
6882.00      19.0879
6884.00      19.7411
6886.00      21.0065
6888.00      21.0929
6890.00      20.4382
6892.00      20.5053
6894.00      20.4094
6896.00      20.7392
6898.00      20.6020
6900.00      21.1308
6902.00      20.8806
6904.00      21.1749
6906.00      20.2187
6908.00      20.5502
6910.00      20.4456
6912.00      20.7025
6914.00      20.9862
6916.00      21.8743
6918.00      22.1634
6920.00      22.2434
6922.00      22.4648
6924.00      22.4783
6926.00      22.5322
6928.00      22.4801
6930.00      22.5394
6932.00      22.5934
6934.00      22.5233
6936.00      22.6320
6938.00      22.5760
6940.00      22.5185
6942.00      22.5522
6944.00      22.5087
6946.00      22.5207
6948.00      22.6275
6950.00      22.6352
6952.00      22.6738
6954.00      22.7324
6956.00      22.7022
6958.00      22.6355
6960.00      22.7593
6962.00      22.6854
6964.00      22.6696
6966.00      22.7058
6968.00      22.7218
6970.00      22.5673
6972.00      22.5491
6974.00      22.5634
6976.00      22.5154
6978.00      22.5727
6980.00      22.6636
6982.00      22.7272
6984.00      22.6447
6986.00      22.5986
6988.00      22.5043
6990.00      22.4520
6992.00      22.4053
6994.00      22.4602
6996.00      22.5090
6998.00      22.5857
7000.00      22.6436
7002.00      22.6372
7004.00      22.5602
7006.00      22.5776
7008.00      22.5627
7010.00      22.5095
7012.00      22.4848
7014.00      22.4198
7016.00      22.4224
7018.00      22.4513
7020.00      22.4419
7022.00      22.4792
7024.00      22.5555
7026.00      22.4611
7028.00      22.3759
7030.00      22.4216
7032.00      22.4310
7034.00      22.4199
7036.00      22.4311
7038.00      22.5009
7040.00      22.4975
7042.00      22.4672
7044.00      22.4669
7046.00      22.5030
7048.00      22.4143
7050.00      22.3458
7052.00      22.3133
7054.00      22.2713
7056.00      22.2416
7058.00      22.2803
7060.00      22.2325
7062.00      22.1719
7064.00      22.1781
7066.00      22.2245
7068.00      22.2306
7070.00      22.2665
7072.00      22.3157
7074.00      22.3128
7076.00      22.2144
7078.00      22.1911
7080.00      22.1813
7082.00      22.2070
7084.00      22.2272
7086.00      22.2550
7088.00      22.2108
7090.00      22.1775
7092.00      22.1094
7094.00      22.0501
7096.00      22.0201
7098.00      22.0650
7100.00      22.1525
7102.00      22.2435
7104.00      22.2763
7106.00      22.2684
7108.00      22.2477
7110.00      22.1208
7112.00      22.0449
7114.00      22.0343
7116.00      22.0558
7118.00      22.0343
7120.00      22.0593
7122.00      22.0696
7124.00      22.0557
7126.00      22.0388
7128.00      21.9941
7130.00      21.9690
7132.00      21.9915
7134.00      21.9509
7136.00      21.9582
7138.00      22.0583
7140.00      22.0491
7142.00      21.9590
7144.00      21.9954
7146.00      22.0042
7148.00      21.9334
7150.00      21.9260
7152.00      21.9957
7154.00      21.9516
7156.00      21.9103
7158.00      21.9862
7160.00      21.9794
7162.00      21.9573
7164.00      21.8184
7166.00      21.7335
7168.00      21.5451
7170.00      21.2822
7172.00      21.1702
7174.00      20.9648
7176.00      20.9258
7178.00      20.8875
7180.00      21.0404
7182.00      20.8190
7184.00      20.6109
7186.00      20.7173
7188.00      20.6294
7190.00      20.4190
7192.00      20.5686
7194.00      20.9043
7196.00      20.8172
7198.00      20.5028
7200.00      20.6597
7202.00      20.5555
7204.00      20.4315
7206.00      20.5745
7208.00      20.9806
7210.00      21.1752
7212.00      21.5044
7214.00      21.7539
7216.00      21.7856
7218.00      21.8583
7220.00      21.8158
7222.00      21.6684
7224.00      21.6265
7226.00      21.6368
7228.00      21.5584
7230.00      21.2317
7232.00      20.9339
7234.00      20.8328
7236.00      20.7918
7238.00      20.4848
7240.00      20.6042
7242.00      20.7394
7244.00      20.7620
7246.00      20.6883
7248.00      20.8838
7250.00      20.6640
7252.00      20.7495
7254.00      20.7443
7256.00      20.7579
7258.00      20.8295
7260.00      21.0570
7262.00      20.9744
7264.00      20.9651
7266.00      20.9900
7268.00      20.8780
7270.00      20.7303
7272.00      20.8962
7274.00      20.7332
7276.00      20.6110
7278.00      20.6793
7280.00      20.7872
7282.00      20.9308
7284.00      21.1002
7286.00      21.0927
7288.00      20.8698
7290.00      20.7861
7292.00      20.6118
7294.00      20.6150
7296.00      20.7310
7298.00      20.8521
7300.00      20.8225
7302.00      20.8062
7304.00      20.8126
7306.00      20.7726
7308.00      20.7515
7310.00      20.8759
7312.00      21.0008
7314.00      20.9709
7316.00      20.9523
7318.00      21.0727
7320.00      21.1874
7322.00      21.2219
7324.00      21.2227
7326.00      21.3168
7328.00      21.2482
7330.00      21.1528
7332.00      21.0874
7334.00      21.0971
7336.00      21.1198
7338.00      21.1162
7340.00      21.2051
7342.00      21.2325
7344.00      21.2422
7346.00      21.1928
7348.00      21.2731
7350.00      21.2142
7352.00      21.1979
7354.00      21.1564
7356.00      21.1674
7358.00      21.1041
7360.00      21.0707
7362.00      21.0617
7364.00      21.0940
7366.00      21.1351
7368.00      21.1935
7370.00      21.2122
7372.00      21.2161
7374.00      21.2004
7376.00      21.1660
7378.00      21.1501
7380.00      21.1302
7382.00      21.1509
7384.00      21.2109
7386.00      21.2073
7388.00      21.1608
7390.00      21.1847
7392.00      21.1913
7394.00      21.0978
7396.00      21.0866
7398.00      21.1715
7400.00      21.1626
7402.00      21.0969
7404.00      21.1490
7406.00      21.2099
7408.00      21.1135
7410.00      21.0384
7412.00      21.0569
7414.00      21.0294
7416.00      20.9453
7418.00      20.9436
7420.00      20.9774
7422.00      20.9741
7424.00      20.9641
7426.00      20.9354
7428.00      20.9434
7430.00      20.9248
7432.00      20.8469
7434.00      20.7883
7436.00      20.7950
7438.00      20.7689
7440.00      20.7620
7442.00      20.8421
7444.00      20.8438
7446.00      20.8183
7448.00      20.8406
7450.00      20.8096
7452.00      20.7321
7454.00      20.7404
7456.00      20.7342
7458.00      20.6933
7460.00      20.7088
7462.00      20.7700
7464.00      20.7610
7466.00      20.8020
7468.00      20.8237
7470.00      20.8095
7472.00      20.8075
7474.00      20.8575
7476.00      20.8553
7478.00      20.9110
7480.00      20.9340
7482.00      20.9298
7484.00      20.9004
7486.00      20.9516
7488.00      20.8676
7490.00      20.8538
7492.00      20.8307
7494.00      20.7903
7496.00      20.7152
7498.00      20.6892
7500.00      20.6386
7502.00      20.6120
7504.00      20.5865
7506.00      20.5810
7508.00      20.5710
7510.00      20.4638
7512.00      20.3239
7514.00      20.1992
7516.00      20.1650
7518.00      20.2262
7520.00      20.3793
7522.00      20.5725
7524.00      20.7429
7526.00      20.7713
7528.00      20.7055
7530.00      20.6446
7532.00      20.6315
7534.00      20.6200
7536.00      20.6263
7538.00      20.7207
7540.00      20.7919
7542.00      20.7375
7544.00      20.7128
7546.00      20.7300
7548.00      20.6833
7550.00      20.5837
7552.00      20.5188
7554.00      20.4791
7556.00      20.4354
7558.00      20.3910
7560.00      20.3856
7562.00      20.4480
7564.00      20.4478
7566.00      20.4260
7568.00      20.4315
7570.00      20.4464
7572.00      20.4275
7574.00      20.4360
7576.00      20.4319
7578.00      20.3791
7580.00      20.3077
7582.00      20.2934
7584.00      20.2752
7586.00      20.2706
7588.00      20.1092
7590.00      19.4918
7592.00      17.5018
7594.00      15.1250
7596.00      12.6866
7598.00      10.0350
7600.00      7.61927
7602.00      6.45411
7604.00      5.88832
7606.00      5.50165
7608.00      5.76824
7610.00      6.41942
7612.00      7.66289
7614.00      9.62605
7616.00      12.1673
7618.00      13.4634
7620.00      14.3767
7622.00      14.1359
7624.00      13.6531
7626.00      11.7757
7628.00      10.9200
7630.00      10.3358
7632.00      10.7938
7634.00      10.4599
7636.00      11.5219
7638.00      11.1473
7640.00      12.4872
7642.00      11.9987
7644.00      13.2887
7646.00      13.0958
7648.00      13.7482
7650.00      14.0539
7652.00      14.5188
7654.00      15.0616
7656.00      15.5496
7658.00      16.1528
7660.00      16.4383
7662.00      17.1209
7664.00      17.0865
7666.00      17.5018
7668.00      17.9973
7670.00      17.8564
7672.00      18.3970
7674.00      18.6766
7676.00      18.5268
7678.00      19.0397
7680.00      19.2155
7682.00      19.0990
7684.00      19.4035
7686.00      19.5662
7688.00      19.4305
7690.00      19.6311
7692.00      19.8002
7694.00      19.7178
7696.00      19.7058
7698.00      19.8351
7700.00      19.7577
7702.00      19.7473
7704.00      19.8863
7706.00      19.9629
7708.00      19.9712
7710.00      20.0009
7712.00      20.0572
7714.00      20.0038
7716.00      20.0430
7718.00      20.0563
7720.00      20.0741
7722.00      20.0166
7724.00      20.0772
7726.00      20.0164
7728.00      19.9858
7730.00      19.9992
7732.00      20.0278
7734.00      20.0579
7736.00      20.1169
7738.00      20.1328
7740.00      20.1153
7742.00      20.1231
7744.00      20.0930
7746.00      20.0179
7748.00      20.0404
7750.00      20.0199
7752.00      19.9364
7754.00      19.8869
7756.00      19.8811
7758.00      19.7913
7760.00      19.7449
7762.00      19.7733
7764.00      19.8101
7766.00      19.7976
7768.00      19.8060
7770.00      19.8456
7772.00      19.8423
7774.00      19.7514
7776.00      19.7158
7778.00      19.7070
7780.00      19.6815
7782.00      19.6850
7784.00      19.7582
7786.00      19.7953
7788.00      19.8111
7790.00      19.7779
7792.00      19.7480
7794.00      19.7041
7796.00      19.6930
7798.00      19.6642
7800.00      19.7068
7802.00      19.7446
7804.00      19.7795
7806.00      19.7764
7808.00      19.7648
7810.00      19.7692
7812.00      19.7104
7814.00      19.6406
7816.00      19.6082
7818.00      19.6338
7820.00      19.5922
7822.00      19.6226
7824.00      19.6687
7826.00      19.6976
7828.00      19.6409
7830.00      19.6422
7832.00      19.6020
7834.00      19.4879
7836.00      19.4447
7838.00      19.4054
7840.00      19.3536
7842.00      19.3486
7844.00      19.3846
7846.00      19.3343
7848.00      19.3820
7850.00      19.4726
7852.00      19.4525
7854.00      19.4452
7856.00      19.4989
7858.00      19.3984
7860.00      19.3288
7862.00      19.3320
7864.00      19.3637
7866.00      19.3583
7868.00      19.5159
7870.00      19.5901
7872.00      19.5922
7874.00      19.5807
7876.00      19.5585
7878.00      19.4706
7880.00      19.4295
7882.00      19.4138
7884.00      19.3995
7886.00      19.3760
7888.00      19.2982
7890.00      19.2367
7892.00      19.1937
7894.00      19.1835
7896.00      19.2193
7898.00      19.2857
7900.00      19.3418
7902.00      19.4285
7904.00      19.4948
7906.00      19.4383
7908.00      19.4641
7910.00      19.4421
7912.00      19.3223
7914.00      19.2229
7916.00      19.2425
7918.00      19.2275
7920.00      19.2221
7922.00      19.2719
7924.00      19.2497
7926.00      19.1995
7928.00      19.2001
7930.00      19.1749
7932.00      19.1642
7934.00      19.2291
7936.00      19.2918
7938.00      19.3021
7940.00      19.2346
7942.00      19.2409
7944.00      19.2232
7946.00      19.1650
7948.00      19.1159
7950.00      19.2132
7952.00      19.2123
7954.00      19.1918
7956.00      19.1534
7958.00      19.1245
7960.00      19.0460
7962.00      19.0252
7964.00      19.0044
7966.00      19.0498
7968.00      19.0816
7970.00      19.1422
7972.00      19.1212
7974.00      19.1103
7976.00      19.0983
7978.00      19.0345
7980.00      18.8692
7982.00      18.8719
7984.00      18.9433
7986.00      18.9787
7988.00      19.0163
7990.00      19.1642
7992.00      19.1858
7994.00      19.1037
7996.00      19.0297
7998.00      18.9897
8000.00      19.0424
8002.00      19.0422
8004.00      18.9938
8006.00      19.0135
8008.00      19.0973
8010.00      19.0170
8012.00      18.9122
8014.00      18.9344
8016.00      18.9069
8018.00      18.8397
8020.00      18.8532
8022.00      18.8977
8024.00      18.9524
8026.00      18.9771
8028.00      19.0005
8030.00      18.9382
8032.00      18.7335
8034.00      18.3514
8036.00      18.2544
8038.00      18.2173
8040.00      18.2300
8042.00      18.4257
8044.00      18.7785
8046.00      18.8808
8048.00      18.8314
8050.00      18.8147
8052.00      18.8311
8054.00      18.8053
8056.00      18.7825
8058.00      18.7917
8060.00      18.8273
8062.00      18.8684
8064.00      18.8910
8066.00      18.9196
8068.00      18.9783
8070.00      18.9540
8072.00      18.9254
8074.00      18.8550
8076.00      18.7723
8078.00      18.7003
8080.00      18.6811
8082.00      18.5706
8084.00      18.5485
8086.00      18.5911
8088.00      18.6360
8090.00      18.6507
8092.00      18.6587
8094.00      18.7023
8096.00      18.6658
8098.00      18.6867
8100.00      18.6771
8102.00      18.7421
8104.00      18.7558
8106.00      18.7459
8108.00      18.7378
8110.00      18.3818
8112.00      18.2063
8114.00      18.1882
8116.00      18.2499
8118.00      18.2188
8120.00      18.4890
8122.00      18.6510
8124.00      18.5547
8126.00      18.5323
8128.00      18.4522
8130.00      18.3979
8132.00      18.2119
8134.00      18.2104
8136.00      18.1240
8138.00      18.0264
8140.00      17.9307
8142.00      18.0510
8144.00      17.9679
8146.00      17.7754
8148.00      17.8154
8150.00      17.8226
8152.00      17.6311
8154.00      17.6963
8156.00      17.8069
8158.00      17.7747
8160.00      17.4977
8162.00      17.3632
8164.00      17.4060
8166.00      17.2470
8168.00      17.0334
8170.00      17.4490
8172.00      17.7982
8174.00      17.4487
8176.00      17.2658
8178.00      17.4614
8180.00      16.9998
8182.00      16.9720
8184.00      17.1720
8186.00      17.3754
8188.00      17.4244
8190.00      17.6495
8192.00      17.6579
8194.00      17.6682
8196.00      17.5979
8198.00      17.5641
8200.00      17.6597
8202.00      17.6743
8204.00      17.8004
8206.00      18.0828
8208.00      18.1860
8210.00      18.1635
8212.00      18.2947
8214.00      18.2180
8216.00      18.0716
8218.00      17.9312
8220.00      17.7276
8222.00      17.1660
8224.00      16.4328
8226.00      15.8167
8228.00      15.5906
8230.00      15.5615
8232.00      15.8964
8234.00      16.5625
8236.00      17.3782
8238.00      17.7861
8240.00      17.9597
8242.00      17.9962
8244.00      17.9701
8246.00      17.8526
8248.00      17.7743
8250.00      17.8582
8252.00      18.0492
8254.00      17.8820
8256.00      17.8913
8258.00      17.9436
8260.00      17.8929
8262.00      17.8407
8264.00      18.1084
8266.00      18.1995
8268.00      18.2106
8270.00      18.1092
8272.00      17.8560
8274.00      17.6533
8276.00      17.5042
8278.00      17.3422
8280.00      17.3116
8282.00      17.5599
8284.00      17.5957
8286.00      17.3507
8288.00      17.4729
8290.00      17.6025
8292.00      17.3703
8294.00      17.4470
8296.00      17.7464
8298.00      17.6771
8300.00      17.6831
8302.00      17.7236
8304.00      17.6725
8306.00      17.7225
8308.00      17.7280
8310.00      17.6210
8312.00      17.7947
8314.00      17.7700
8316.00      17.6095
8318.00      17.5090
8320.00      17.4229
8322.00      17.4028
8324.00      17.4516
8326.00      17.4646
8328.00      17.5309
8330.00      17.6940
8332.00      17.6112
8334.00      17.5504
8336.00      17.5093
8338.00      17.5072
8340.00      17.4120
8342.00      17.3361
8344.00      17.2085
8346.00      17.2151
8348.00      17.2765
8350.00      17.3184
8352.00      17.4295
8354.00      17.4722
8356.00      17.5135
8358.00      17.5017
8360.00      17.5069
8362.00      17.5791
8364.00      17.6802
8366.00      17.7795
8368.00      17.8180
8370.00      17.8586
8372.00      17.8228
8374.00      17.7453
8376.00      17.7385
8378.00      17.7135
8380.00      17.7068
8382.00      17.5664
8384.00      17.4030
8386.00      17.3187
8388.00      17.3997
8390.00      17.4003
8392.00      17.4524
8394.00      17.6907
8396.00      17.6103
8398.00      17.4949
8400.00      17.4819
8402.00      17.5568
8404.00      17.5368
8406.00      17.6632
8408.00      17.7061
8410.00      17.7278
8412.00      17.7316
8414.00      17.7599
8416.00      17.7163
8418.00      17.6822
8420.00      17.6820
8422.00      17.6930
8424.00      17.5897
8426.00      17.5905
8428.00      17.6189
8430.00      17.6020
8432.00      17.5824
8434.00      17.6536
8436.00      17.7353
8438.00      17.8310
8440.00      17.8134
8442.00      17.8025
8444.00      17.8291
8446.00      17.8034
8448.00      17.7968
8450.00      17.8828
8452.00      17.8935
8454.00      17.8737
8456.00      17.8458
8458.00      17.7711
8460.00      17.7079
8462.00      17.6323
8464.00      17.5721
8466.00      17.5490
8468.00      17.5628
8470.00      17.5480
8472.00      17.5680
8474.00      17.6152
8476.00      17.6370
8478.00      17.6583
8480.00      17.6326
8482.00      17.6333
8484.00      17.6089
8486.00      17.6447
8488.00      17.6269
8490.00      17.6414
8492.00      17.6964
8494.00      17.7267
8496.00      17.7246
8498.00      17.7228
8500.00      17.6894
8502.00      17.7054
8504.00      17.6778
8506.00      17.6725
8508.00      17.6553
8510.00      17.6115
8512.00      17.5652
8514.00      17.5787
8516.00      17.5473
8518.00      17.6035
8520.00      17.6229
8522.00      17.5959
8524.00      17.5530
8526.00      17.5272
8528.00      17.4772
8530.00      17.4485
8532.00      17.4231
8534.00      17.3750
8536.00      17.3766
8538.00      17.3700
8540.00      17.4504
8542.00      17.5064
8544.00      17.5276
8546.00      17.3966
8548.00      17.3732
8550.00      17.2969
8552.00      17.2298
8554.00      17.2848
8556.00      17.4117
8558.00      17.3921
8560.00      17.3681
8562.00      17.3341
8564.00      17.2593
8566.00      17.2322
8568.00      17.2374
8570.00      17.2625
8572.00      17.3565
8574.00      17.4412
8576.00      17.4591
8578.00      17.4614
8580.00      17.4512
8582.00      17.4022
8584.00      17.3368
8586.00      17.2845
8588.00      17.2062
8590.00      17.0210
8592.00      16.6812
8594.00      16.5600
8596.00      16.5264
8598.00      16.6064
8600.00      16.7259
8602.00      16.9983
8604.00      17.2141
8606.00      17.2380
8608.00      17.2033
8610.00      17.1872
8612.00      17.2098
8614.00      17.1960
8616.00      17.1873
8618.00      17.1867
8620.00      17.2055
8622.00      17.1878
8624.00      17.1933
8626.00      17.1517
8628.00      17.1475
8630.00      17.0924
8632.00      17.0269
8634.00      16.8768
8636.00      16.8413
8638.00      16.8807
8640.00      16.9204
8642.00      16.9870
8644.00      17.0273
8646.00      17.0355
8648.00      16.8499
8650.00      16.6363
8652.00      16.3859
8654.00      16.1468
8656.00      16.0250
8658.00      16.1036
8660.00      16.3541
8662.00      16.5850
8664.00      16.9221
8666.00      17.1242
8668.00      17.0920
8670.00      17.0318
8672.00      16.8611
8674.00      16.6855
8676.00      16.6635
8678.00      16.7513
8680.00      16.8448
8682.00      17.0111
8684.00      17.0988
8686.00      17.1244
8688.00      16.7659
8690.00      16.0366
8692.00      14.4870
8694.00      12.3311
8696.00      11.4614
8698.00      11.6419
8700.00      12.3646
8702.00      13.7233
8704.00      15.9202
8706.00      16.8244
8708.00      16.7576
8710.00      16.3184
8712.00      15.8755
8714.00      15.8043
8716.00      15.9442
8718.00      16.1184
8720.00      16.5436
8722.00      16.9539
8724.00      17.0435
8726.00      17.0547
8728.00      17.0728
8730.00      17.0962
8732.00      17.1588
8734.00      17.1562
8736.00      17.1151
8738.00      17.0877
8740.00      17.0538
8742.00      17.0325
8744.00      17.0393
8746.00      17.0339
8748.00      17.0197
8750.00      16.9085
8752.00      16.7141
8754.00      16.5271
8756.00      16.4040
8758.00      16.3062
8760.00      16.3467
8762.00      16.5312
8764.00      16.6534
8766.00      16.7818
8768.00      16.8137
8770.00      16.7579
8772.00      16.5041
8774.00      16.2868
8776.00      16.2325
8778.00      16.2545
8780.00      16.3192
8782.00      16.5055
8784.00      16.7152
8786.00      16.7996
8788.00      16.8657
8790.00      16.8665
8792.00      16.8376
8794.00      16.8658
8796.00      16.8325
8798.00      16.7623
8800.00      16.6010
8802.00      16.3238
8804.00      15.5898
8806.00      14.2159
8808.00      13.5486
8810.00      13.6410
8812.00      13.9596
8814.00      14.5766
8816.00      15.8840
8818.00      16.6676
8820.00      16.5838
8822.00      16.4990
8824.00      16.4010
8826.00      16.3873
8828.00      16.3759
8830.00      16.2548
8832.00      15.0990
8834.00      13.7012
8836.00      11.0565
8838.00      8.89699
8840.00      8.83922
8842.00      9.95347
8844.00      11.3744
8846.00      13.9064
8848.00      16.2406
8850.00      16.3626
8852.00      16.1547
8854.00      16.1580
8856.00      16.0445
8858.00      15.9162
8860.00      15.6741
8862.00      15.5008
8864.00      15.3363
8866.00      15.4406
8868.00      15.5458
8870.00      15.8287
8872.00      16.1944
8874.00      16.3786
8876.00      16.3498
8878.00      16.3392
8880.00      16.3054
8882.00      15.7582
8884.00      15.1624
8886.00      14.2282
8888.00      13.3168
8890.00      13.2640
8892.00      13.7962
8894.00      14.3583
8896.00      15.1228
8898.00      15.9187
8900.00      15.7391
8902.00      15.4425
8904.00      15.4254
8906.00      15.5428
8908.00      15.6958
8910.00      16.0593
8912.00      16.3079
8914.00      16.2973
8916.00      16.0421
8918.00      15.6892
8920.00      15.1773
8922.00      14.7041
8924.00      14.4956
8926.00      14.5706
8928.00      14.6618
8930.00      14.9959
8932.00      15.4831
8934.00      15.7017
8936.00      15.7888
8938.00      15.8568
8940.00      15.6874
8942.00      15.2671
8944.00      14.8799
8946.00      14.7273
8948.00      14.8121
8950.00      14.9577
8952.00      14.9746
8954.00      15.1612
8956.00      15.2064
8958.00      15.2556
8960.00      15.0578
8962.00      15.1884
8964.00      15.2169
8966.00      15.4181
8968.00      15.2278
8970.00      15.2189
8972.00      15.2541
8974.00      15.4440
8976.00      15.3848
8978.00      15.1224
8980.00      15.4200
8982.00      15.6401
8984.00      15.2741
8986.00      14.6753
8988.00      14.5471
8990.00      14.0985
8992.00      14.0178
8994.00      14.3540
8996.00      14.7795
8998.00      14.6149
9000.00      14.9755
9002.00      14.6787
9004.00      14.5638
9006.00      14.5501
9008.00      15.0957
9010.00      15.0346
9012.00      15.3753
9014.00      14.9335
9016.00      14.9915
9018.00      15.0427
9020.00      15.0314
9022.00      14.8732
9024.00      14.9637
9026.00      15.2171
9028.00      15.0771
9030.00      15.2850
9032.00      15.4749
9034.00      15.9285
9036.00      15.9708
9038.00      16.0597
9040.00      15.9672
9042.00      15.9555
9044.00      15.9610
9046.00      15.8957
9048.00      15.9035
9050.00      15.9470
9052.00      15.8978
9054.00      15.9039
9056.00      15.9480
9058.00      15.8183
9060.00      15.7657
9062.00      15.7316
9064.00      15.6585
9066.00      15.3597
9068.00      15.1872
9070.00      14.9189
9072.00      14.8290
9074.00      14.8512
9076.00      14.9111
9078.00      14.7054
9080.00      14.9646
9082.00      15.1900
9084.00      14.7505
9086.00      14.6766
9088.00      15.0980
9090.00      15.1197
9092.00      14.9276
9094.00      15.2728
9096.00      15.3324
9098.00      14.9448
9100.00      15.0684
9102.00      15.1341
9104.00      14.8425
9106.00      14.7101
9108.00      15.2010
9110.00      15.2970
9112.00      15.4427
9114.00      15.6856
9116.00      15.4240
9118.00      15.2249
9120.00      15.2166
9122.00      15.1305
9124.00      15.1906
9126.00      15.4856
9128.00      15.2305
9130.00      15.0139
9132.00      14.7491
9134.00      14.1330
9136.00      14.2000
9138.00      14.6416
9140.00      14.8188
9142.00      14.9396
9144.00      15.5117
9146.00      15.6773
9148.00      15.4991
9150.00      15.0342
9152.00      14.7530
9154.00      14.2205
9156.00      14.1481
9158.00      14.1620
9160.00      14.5649
9162.00      14.8924
9164.00      15.4872
9166.00      15.3730
9168.00      15.5090
9170.00      15.3611
9172.00      14.8780
9174.00      14.5041
9176.00      14.5164
9178.00      14.4975
9180.00      14.5125
9182.00      14.6468
9184.00      14.9341
9186.00      15.0796
9188.00      15.0513
9190.00      14.9886
9192.00      15.1619
9194.00      15.0367
9196.00      15.0119
9198.00      15.0602
9200.00      15.2467
9202.00      15.4065
9204.00      15.5677
9206.00      15.4976
9208.00      15.4730
9210.00      15.3697
9212.00      15.1761
9214.00      15.1018
9216.00      15.0969
9218.00      15.0658
9220.00      15.1274
9222.00      15.2240
9224.00      15.2886
9226.00      15.3558
9228.00      15.2924
9230.00      15.2195
9232.00      15.1498
9234.00      15.1686
9236.00      15.0401
9238.00      15.0277
9240.00      15.0297
9242.00      14.9355
9244.00      14.8175
9246.00      14.9071
9248.00      14.8754
9250.00      14.8944
9252.00      14.9780
9254.00      15.1757
9256.00      15.1834
9258.00      15.1275
9260.00      15.0285
9262.00      15.0461
9264.00      14.9620
9266.00      14.9349
9268.00      15.0147
9270.00      15.0565
9272.00      15.0208
9274.00      14.9637
9276.00      14.6182
9278.00      14.3317
9280.00      14.3255
9282.00      14.1217
9284.00      13.8984
9286.00      14.0872
9288.00      14.3347
9290.00      14.2672
9292.00      14.1224
9294.00      14.1609
9296.00      13.9164
9298.00      13.5014
9300.00      13.2719
9302.00      13.2340
9304.00      13.3535
9306.00      12.8483
9308.00      12.7001
9310.00      12.8861
9312.00      12.8491
9314.00      11.4445
9316.00      11.5131
9318.00      11.8392
9320.00      11.4448
9322.00      10.4042
9324.00      10.9635
9326.00      11.2129
9328.00      11.2855
9330.00      11.0403
9332.00      10.9855
9334.00      11.1903
9336.00      10.7300
9338.00      10.3008
9340.00      9.47438
9342.00      8.80072
9344.00      8.60300
9346.00      9.44643
9348.00      10.0725
9350.00      10.6423
9352.00      11.0273
9354.00      11.3465
9356.00      9.76088
9358.00      9.49267
9360.00      9.97402
9362.00      11.0198
9364.00      10.8006
9366.00      11.8712
9368.00      10.9792
9370.00      10.0531
9372.00      10.4451
9374.00      10.8245
9376.00      10.4352
9378.00      10.6232
9380.00      11.0020
9382.00      11.0865
9384.00      10.6706
9386.00      11.2193
9388.00      12.3350
9390.00      13.1814
9392.00      13.2794
9394.00      14.1435
9396.00      14.4690
9398.00      13.9482
9400.00      13.7222
9402.00      13.5311
9404.00      13.4204
9406.00      13.4497
9408.00      13.1287
9410.00      13.2626
9412.00      13.3881
9414.00      13.2274
9416.00      12.8421
9418.00      13.5987
9420.00      13.5185
9422.00      13.5912
9424.00      12.7324
9426.00      11.8700
9428.00      11.1136
9430.00      11.4048
9432.00      11.4717
9434.00      12.0598
9436.00      12.5237
9438.00      11.8557
9440.00      10.8763
9442.00      10.1063
9444.00      9.99142
9446.00      11.0510
9448.00      12.1902
9450.00      13.3441
9452.00      13.1876
9454.00      12.7127
9456.00      12.4381
9458.00      11.3151
9460.00      10.7761
9462.00      11.3951
9464.00      12.1280
9466.00      11.7443
9468.00      12.5852
9470.00      13.3046
9472.00      12.8314
9474.00      12.4507
9476.00      12.8807
9478.00      12.2392
9480.00      11.0404
9482.00      11.5489
9484.00      12.0145
9486.00      12.1691
9488.00      13.3392
9490.00      14.2852
9492.00      13.1427
9494.00      12.7094
9496.00      11.9895
9498.00      10.5205
9500.00      9.86887
9502.00      11.0433
9504.00      11.5486
9506.00      12.3254
9508.00      13.6165
9510.00      14.6326
9512.00      14.5010
9514.00      13.8300
9516.00      12.9596
9518.00      11.8126
9520.00      10.2915
9522.00      10.0212
9524.00      10.3516
9526.00      10.5048
9528.00      11.2501
9530.00      12.8081
9532.00      13.1429
9534.00      12.8355
9536.00      13.3280
9538.00      13.3528
9540.00      13.0147
9542.00      11.8505
9544.00      11.6947
9546.00      11.6946
9548.00      11.8789
9550.00      11.7831
9552.00      12.1408
9554.00      12.3796
9556.00      11.9684
9558.00      11.9148
9560.00      11.9282
9562.00      12.1843
9564.00      11.8719
9566.00      12.0786
9568.00      11.9058
9570.00      12.0196
9572.00      12.7021
9574.00      13.5584
9576.00      13.9977
9578.00      13.5043
9580.00      13.2578
9582.00      13.1484
9584.00      12.9716
9586.00      12.4547
9588.00      12.1648
9590.00      11.7262
9592.00      10.1362
9594.00      8.55742
9596.00      8.27747
9598.00      9.05320
9600.00      9.99865
9602.00      11.1334
9604.00      12.3136
9606.00      13.0218
9608.00      13.0187
9610.00      13.0200
9612.00      13.0907
9614.00      13.4287
9616.00      13.3003
9618.00      13.0219
9620.00      12.4661
9622.00      12.3367
9624.00      12.0795
9626.00      12.2362
9628.00      12.7193
9630.00      13.4059
9632.00      13.6884
9634.00      13.5711
9636.00      13.0181
9638.00      11.9774
9640.00      10.7956
9642.00      8.62758
9644.00      6.81272
9646.00      6.80563
9648.00      7.72446
9650.00      8.65695
9652.00      10.6256
9654.00      12.9569
9656.00      13.7490
9658.00      13.5606
9660.00      13.1696
9662.00      12.9679
9664.00      12.9120
9666.00      12.7815
9668.00      12.5207
9670.00      12.8189
9672.00      13.0213
9674.00      13.0903
9676.00      13.3714
9678.00      13.5095
9680.00      13.6676
9682.00      13.8152
9684.00      13.7386
9686.00      13.4898
9688.00      13.3354
9690.00      12.8775
9692.00      12.5352
9694.00      12.6121
9696.00      12.6133
9698.00      12.6905
9700.00      13.0517
9702.00      13.4263
9704.00      13.5516
9706.00      13.6061
9708.00      13.8038
9710.00      13.8748
9712.00      13.5691
9714.00      13.2605
9716.00      13.3167
9718.00      13.4445
9720.00      13.4894
9722.00      13.5208
9724.00      13.7720
9726.00      13.7856
9728.00      13.7149
9730.00      13.7440
9732.00      13.8230
9734.00      13.4772
9736.00      13.1556
9738.00      13.0877
9740.00      12.8339
9742.00      12.4741
9744.00      12.7998
9746.00      13.0356
9748.00      12.9053
9750.00      13.0501
9752.00      13.2436
9754.00      13.1328
9756.00      12.8651
9758.00      13.0369
9760.00      12.6158
9762.00      12.4250
9764.00      12.2403
9766.00      12.3108
9768.00      12.2590
9770.00      12.7972
9772.00      13.2999
9774.00      13.6323
9776.00      13.8723
9778.00      13.9668
9780.00      13.5864
9782.00      13.4930
9784.00      13.3999
9786.00      13.4407
9788.00      13.4474
9790.00      13.5591
9792.00      13.5363
9794.00      13.6223
9796.00      13.6668
9798.00      13.5991
9800.00      13.5686
9802.00      13.7384
9804.00      13.7424
9806.00      13.6883
9808.00      13.7326
9810.00      13.9111
9812.00      13.8490
9814.00      13.7747
9816.00      13.7013
9818.00      13.7713
9820.00      13.7362
9822.00      13.6573
9824.00      13.6557
9826.00      13.8780
9828.00      13.8546
9830.00      13.8844
9832.00      14.0267
9834.00      14.1297
9836.00      13.9768
9838.00      13.8541
9840.00      13.7873
9842.00      13.8357
9844.00      13.8033
9846.00      13.5135
9848.00      13.5090
9850.00      13.5705
9852.00      13.5023
9854.00      13.4794
9856.00      13.7298
9858.00      13.7171
9860.00      13.5706
9862.00      13.5924
9864.00      13.6098
9866.00      13.5290
9868.00      13.6593
9870.00      13.7401
9872.00      13.8265
9874.00      13.8235
9876.00      13.9490
9878.00      13.8971
9880.00      13.9895
9882.00      13.9011
9884.00      13.7667
9886.00      13.6385
9888.00      13.5519
9890.00      13.4666
9892.00      13.3263
9894.00      13.3374
9896.00      13.3963
9898.00      13.4480
9900.00      13.5208
9902.00      13.6459
9904.00      13.7279
9906.00      13.8056
9908.00      13.8322
9910.00      13.8287
9912.00      13.8102
9914.00      13.8065
9916.00      13.7827
9918.00      13.7246
9920.00      13.7295
9922.00      13.7536
9924.00      13.7093
9926.00      13.6191
9928.00      13.5817
9930.00      13.5667
9932.00      13.4939
9934.00      13.4785
9936.00      13.4886
9938.00      13.5945
9940.00      13.4420
9942.00      13.2796
9944.00      13.2924
9946.00      13.2138
9948.00      13.1044
9950.00      13.2527
9952.00      13.4243
9954.00      13.4642
9956.00      13.5290
9958.00      13.5930
9960.00      13.4543
9962.00      13.5408
9964.00      13.6056
9966.00      13.5564
9968.00      13.5140
9970.00      13.4756
9972.00      13.4099
9974.00      13.3943
9976.00      13.4833
9978.00      13.5200
9980.00      13.7257
9982.00      13.7729
9984.00      13.7402
9986.00      13.7046
9988.00      13.6766
9990.00      13.5403
9992.00      13.4595
9994.00      13.4165
9996.00      13.3445
9998.00      13.2270
10000.0      13.2616
10002.0      13.3113
10004.0      13.3422
10006.0      13.4160
10008.0      13.5161
10010.0      13.8304
10012.0      13.8635
10014.0      13.8011
10016.0      13.8283
10018.0      13.7949
10020.0      13.4997
10022.0      13.3921
10024.0      13.3563
10026.0      13.2198
10028.0      13.3079
10030.0      13.2900
10032.0      13.3580
10034.0      13.4957
10036.0      13.8175
10038.0      13.7387
10040.0      13.0378
10042.0         -NaN
10044.0         -NaN
10046.0         -NaN
10048.0         -NaN
10050.0         -NaN
10052.0         -NaN
10054.0         -NaN
10056.0         -NaN
10058.0         -NaN
10060.0         -NaN
10062.0         -NaN
10064.0         -NaN
10066.0         -NaN
10068.0         -NaN
10070.0         -NaN
10072.0         -NaN
10074.0         -NaN
10076.0         -NaN
10078.0         -NaN
10080.0         -NaN
10082.0         -NaN
10084.0         -NaN
10086.0         -NaN
10088.0         -NaN
10090.0         -NaN
10092.0         -NaN
10094.0         -NaN
10096.0         -NaN
10098.0         -NaN
10100.0         -NaN
10102.0         -NaN
10104.0         -NaN
10106.0         -NaN
10108.0         -NaN
10110.0         -NaN
10112.0         -NaN
10114.0         -NaN
10116.0         -NaN
10118.0         -NaN
10120.0         -NaN
10122.0         -NaN
10124.0         -NaN
10126.0         -NaN
10128.0         -NaN
10130.0         -NaN
10132.0         -NaN
10134.0         -NaN
10136.0         -NaN
10138.0         -NaN
10140.0         -NaN
10142.0         -NaN
10144.0         -NaN
10146.0         -NaN
10148.0         -NaN
10150.0         -NaN
10152.0         -NaN
10154.0         -NaN
10156.0         -NaN
10158.0         -NaN
10160.0         -NaN
10162.0         -NaN
10164.0         -NaN
10166.0         -NaN
10168.0         -NaN
10170.0         -NaN
10172.0         -NaN
10174.0         -NaN
10176.0         -NaN
10178.0         -NaN
10180.0      13.7522
10182.0      13.7093
10184.0      13.7926
10186.0      13.8278
10188.0      13.8630
10190.0      13.8643
10192.0      13.8887
10194.0      13.9272
10196.0      14.0243
10198.0      13.9041
10200.0      13.8589
10202.0      13.8438
10204.0      13.8789
10206.0      13.8535
10208.0      13.7473
10210.0      13.6461
10212.0      13.6623
10214.0      13.5693
10216.0      13.5089
10218.0      13.5191
10220.0      13.4746
10222.0      13.5304
10224.0      13.4863
10226.0      13.4108
10228.0      13.4565
10230.0      13.3943
10232.0      13.4171
10234.0      13.4221
10236.0      13.3878
10238.0      13.4677
10240.0      13.5249
10242.0      13.5401
10244.0      13.5821
10246.0      13.6125
10248.0      13.5756
10250.0      13.6099
10252.0      13.5838
10254.0      13.5393
10256.0      13.5450
10258.0      13.5234
10260.0      13.5669
10262.0      13.5280
10264.0      13.4899
10266.0      13.4758
10268.0      13.4456
10270.0      13.3744
10272.0      13.4030
10274.0      13.4127
10276.0      13.4121
10278.0      13.4110
10280.0      13.3827
10282.0      13.4090
10284.0      13.4762
10286.0      13.4867
10288.0      13.4912
10290.0      13.4999
10292.0      13.4955
10294.0      13.5014
10296.0      13.5597
10298.0      13.5811
10300.0      13.6691
10302.0      13.6882
10304.0      13.6594
10306.0      13.6902
10308.0      13.6769
10310.0      13.6273
10312.0      13.5954
10314.0      13.5209
10316.0      13.4774
10318.0      13.4982
10320.0      13.4801
10322.0      13.4949
10324.0      13.5182
10326.0      13.4607
10328.0      13.3923
10330.0      13.3237
10332.0      13.2881
10334.0      13.2072
10336.0      13.1955
10338.0      13.1991
10340.0      13.2407
10342.0      13.2807
10344.0      13.2965
10346.0      13.3092
10348.0      13.2922
10350.0      13.2619
10352.0      13.2081
10354.0      12.7137
10356.0      11.9630
10358.0      11.1040
10360.0      10.1590
10362.0      9.51479
10364.0      9.43003
10366.0      9.40433
10368.0      9.37805
10370.0      9.38573
10372.0      9.36830
10374.0      9.34528
10376.0      9.37596
10378.0      9.38993
10380.0      9.25240
10382.0      8.49183
10384.0      7.96988
10386.0      7.91209
10388.0      7.94915
10390.0      8.56077
10392.0      9.26442
10394.0      9.54461
10396.0      9.49824
10398.0      9.45087
10400.0      9.40161
10402.0      9.36597
10404.0      9.32271
10406.0      9.23767
10408.0      9.18676
10410.0      9.21493
10412.0      9.79907
10414.0      10.6035
10416.0      11.2880
10418.0      12.1362
10420.0      12.5873
10422.0      12.5880
10424.0      12.5737
10426.0      12.5448
10428.0      12.5677
10430.0      12.5810
10432.0      12.5583
10434.0      12.5800
10436.0      12.6217
10438.0      12.6300
10440.0      12.6061
10442.0      12.5736
10444.0      12.5308
10446.0      12.5268
10448.0      12.5317
10450.0      12.5467
10452.0      12.5448
10454.0      12.5764
10456.0      12.6024
10458.0      12.6020
10460.0      12.5677
10462.0      12.5463
10464.0      12.5336
10466.0      12.5283
10468.0      12.5207
10470.0      12.5383
10472.0      12.5492
10474.0      12.5723
10476.0      12.5781
10478.0      12.5586
10480.0      12.5600
10482.0      12.5764
10484.0      12.5790
10486.0      12.5306
10488.0      12.5417
10490.0      12.5754
10492.0      12.5811
10494.0      12.5541
10496.0      12.5009
10498.0      12.4800
10500.0      12.5149
10502.0      12.5322
10504.0      12.5708
10506.0      12.5328
10508.0      12.5088
10510.0      12.4827
10512.0      12.4661
10514.0      12.4329
10516.0      12.4249
10518.0      12.4414
10520.0      12.4082
10522.0      12.3939
10524.0      12.4333
10526.0      12.4797
10528.0      12.4915
10530.0      12.4557
10532.0      12.4216
10534.0      12.3859
10536.0      12.3605
10538.0      12.3872
10540.0      12.3882
10542.0      12.3813
10544.0      12.3957
10546.0      12.3276
10548.0      12.2601
10550.0      12.2197
10552.0      12.1841
10554.0      12.1865
10556.0      12.2130
10558.0      12.1824
10560.0      12.1927
10562.0      12.1858
10564.0      12.0232
10566.0      11.8034
10568.0      11.6234
10570.0      11.4625
10572.0      11.3251
10574.0      11.2614
10576.0      11.2816
10578.0      11.3036
10580.0      11.3234
10582.0      11.3499
10584.0      11.3589
10586.0      11.2881
10588.0      11.2689
10590.0      11.2564
10592.0      11.2324
10594.0      11.2724
10596.0      11.4861
10598.0      11.5990
10600.0      11.7688
10602.0      11.9003
10604.0      11.9661
10606.0      11.9159
10608.0      11.9219
10610.0      11.9171
10612.0      11.8900
10614.0      11.9084
10616.0      11.9152
10618.0      11.9825
10620.0      11.9995
10622.0      12.0030
10624.0      12.0328
10626.0      12.0679
10628.0      12.1354
10630.0      12.1500
10632.0      12.1366
10634.0      12.0813
10636.0      12.1233
10638.0      12.1587
10640.0      12.1435
10642.0      12.1777
10644.0      12.1604
10646.0      12.1357
10648.0      12.0869
10650.0      12.0611
10652.0      12.0753
10654.0      12.0848
10656.0      12.0835
10658.0      12.0803
10660.0      12.1135
10662.0      12.1150
10664.0      12.1800
10666.0      12.1799
10668.0      12.1580
10670.0      12.1614
10672.0      12.1489
10674.0      12.1523
10676.0      12.1778
10678.0      12.1945
10680.0      12.1995
10682.0      12.1763
10684.0      12.1876
10686.0      12.1640
10688.0      12.1486
10690.0      12.1150
10692.0      12.0906
10694.0      12.1033
10696.0      12.1067
10698.0      12.1172
10700.0      12.1432
10702.0      12.1659
10704.0      12.1621
10706.0      12.1662
10708.0      12.1477
10710.0      12.1648
10712.0      12.1752
10714.0      12.1701
10716.0      12.1204
10718.0      12.1046
10720.0      12.1500
10722.0      12.1885
10724.0      12.3151
10726.0      12.3374
10728.0      12.3366
10730.0      12.3072
10732.0      12.2872
10734.0      12.3073
10736.0      12.2923
10738.0      12.3399
10740.0      12.3541
10742.0      12.3565
10744.0      12.3611
10746.0      12.3631
10748.0      12.4177
10750.0      12.4120
10752.0      12.4177
10754.0      12.2968
10756.0      12.2627
10758.0      12.2634
10760.0      12.2216
10762.0      12.2683
10764.0      12.2402
10766.0      12.2589
10768.0      12.2435
10770.0      12.2266
10772.0      12.2237
10774.0      12.2271
10776.0      12.2404
10778.0      12.2579
10780.0      12.2644
10782.0      12.2496
10784.0      12.2274
10786.0      12.2209
10788.0      12.2126
10790.0      12.2387
10792.0      12.1895
10794.0      12.2338
10796.0      12.2270
10798.0      12.1838
10800.0      12.1629
10802.0      12.1539
10804.0      12.1573
10806.0      12.1352
10808.0      12.1136
10810.0      12.0933
10812.0      12.0942
10814.0      12.0503
10816.0      11.9957
10818.0      12.0346
10820.0      11.9900
10822.0      12.0116
10824.0      11.9769
10826.0      11.9647
10828.0      12.0042
10830.0      11.9770
10832.0      11.9475
10834.0      11.9417
10836.0      11.9320
10838.0      11.9327
10840.0      11.9145
10842.0      11.8919
10844.0      11.9215
10846.0      11.9172
10848.0      11.8486
10850.0      11.8482
10852.0      11.8808
10854.0      11.8864
10856.0      11.8771
10858.0      11.8346
10860.0      11.8602
10862.0      11.8686
10864.0      11.8656
10866.0      11.8760
10868.0      11.8720
10870.0      11.8673
10872.0      11.8635
10874.0      11.8564
10876.0      11.8827
10878.0      11.9328
10880.0      11.9307
10882.0      11.7808
10884.0      11.8044
10886.0      11.8107
10888.0      11.7834
10890.0      11.7748
10892.0      11.7785
10894.0      11.7920
10896.0      11.7662
10898.0      11.7742
10900.0      11.7756
10902.0      11.7191
10904.0      11.6611
10906.0      11.6989
10908.0      11.7336
10910.0      11.6602
10912.0      11.6945
10914.0      11.7243
10916.0      11.7183
10918.0      11.7449
10920.0      11.7373
10922.0      11.7279
10924.0      11.7204
10926.0      11.7313
10928.0      11.7421
10930.0      11.7187
10932.0      11.7555
10934.0      11.7999
10936.0      11.7976
10938.0      11.7419
10940.0      11.8088
10942.0      11.8507
10944.0      11.8473
10946.0      11.8428
10948.0      11.8256
10950.0      11.8130
10952.0      11.8249
10954.0      11.8017
10956.0      11.8008
10958.0      11.7849
10960.0      11.7382
10962.0      11.7251
10964.0      11.7094
10966.0      11.6718
10968.0      11.6977
10970.0      11.6750
10972.0      11.6599
10974.0      11.6604
10976.0      11.6378
10978.0      11.6478
10980.0      11.6257
10982.0      11.5549
10984.0      11.5276
10986.0      11.5175
10988.0      11.5042
10990.0      11.4675
10992.0      11.5402
10994.0      11.5316
10996.0      11.5209
10998.0      11.4817
11000.0      11.4770
11002.0      11.4667
11004.0      11.4377
11006.0      11.4258
11008.0      11.3819
11010.0      11.3591
11012.0      11.4074
11014.0      11.4351
11016.0      11.3440
11018.0      11.2709
11020.0      11.2701
11022.0      11.2642
11024.0      11.2628
11026.0      11.2665
11028.0      11.1869
11030.0      11.1536
11032.0      11.1595
11034.0      11.1992
11036.0      11.2564
11038.0      11.2802
11040.0      11.2560
11042.0      11.2531
11044.0      11.2042
11046.0      11.2746
11048.0      11.2855
11050.0      11.2570
11052.0      11.1987
11054.0      11.1796
11056.0      11.2506
11058.0      11.3064
11060.0      11.3709
11062.0      11.3159
11064.0      11.2511
11066.0      11.1485
11068.0      11.0620
11070.0      11.0454
11072.0      11.0200
11074.0      11.0498
11076.0      11.1061
11078.0      11.1256
11080.0      11.1777
11082.0      11.2087
11084.0      11.2138
11086.0      11.1462
11088.0      11.1599
11090.0      11.0365
11092.0      10.9671
11094.0      10.9594
11096.0      11.0104
11098.0      10.9655
11100.0      10.8808
11102.0      10.8816
11104.0      10.8803
11106.0      10.7746
11108.0      10.7526
11110.0      10.7401
11112.0      10.7591
11114.0      10.6583
11116.0      10.4824
11118.0      10.2450
11120.0      10.2285
11122.0      10.1469
11124.0      10.1003
11126.0      10.0636
11128.0      10.1182
11130.0      10.2496
11132.0      10.2539
11134.0      10.1628
11136.0      9.84900
11138.0      9.75754
11140.0      9.62340
11142.0      9.50322
11144.0      9.48875
11146.0      9.55861
11148.0      9.44810
11150.0      9.11410
11152.0      8.85071
11154.0      8.76111
11156.0      8.65537
11158.0      8.37999
11160.0      8.11424
11162.0      8.13286
11164.0      8.17299
11166.0      8.36965
11168.0      8.27754
11170.0      8.29024
11172.0      8.30515
11174.0      8.04745
11176.0      7.83224
11178.0      7.69560
11180.0      7.87210
11182.0      8.28830
11184.0      8.38794
11186.0      8.30496
11188.0      8.19420
11190.0      8.30805
11192.0      8.29770
11194.0      8.25787
11196.0      8.24348
11198.0      8.11514
11200.0      8.16172
11202.0      8.08593
11204.0      7.92848
11206.0      7.82101
11208.0      7.73957
11210.0      7.59475
11212.0      7.11300
11214.0      7.02999
11216.0      7.18793
11218.0      7.43525
11220.0      7.42279
11222.0      6.95969
11224.0      6.74101
11226.0      6.72068
11228.0      6.84974
11230.0      6.96336
11232.0      6.96928
11234.0      7.22828
11236.0      7.49624
11238.0      7.39169
11240.0      7.27088
11242.0      7.28411
11244.0      7.46646
11246.0      7.25187
11248.0      6.96340
11250.0      7.04079
11252.0      7.36587
11254.0      7.66388
11256.0      7.67638
11258.0      7.48052
11260.0      7.38505
11262.0      7.09670
11264.0      6.77346
11266.0      6.80638
11268.0      7.00142
11270.0      7.25922
11272.0      7.71012
11274.0      7.64186
11276.0      7.63078
11278.0      7.79156
11280.0      7.69810
11282.0      7.33903
11284.0      7.19617
11286.0      6.91194
11288.0      6.92314
11290.0      7.23104
11292.0      7.48269
11294.0      7.84533
11296.0      8.03647
11298.0      8.13891
11300.0      8.34307
11302.0      8.47594
11304.0      8.70932
11306.0      8.87834
11308.0      8.92822
11310.0      8.90102
11312.0      9.27237
11314.0      9.54917
11316.0      9.61637
11318.0      9.58022
11320.0      9.21420
11322.0      8.87733
11324.0      8.74752
11326.0      8.33258
11328.0      8.00175
11330.0      7.57959
11332.0      6.91844
11334.0      6.27456
11336.0      5.87992
11338.0      5.65805
11340.0      5.79736
11342.0      5.79679
11344.0      5.47805
11346.0      5.19027
11348.0      5.36825
11350.0      5.69239
11352.0      6.07338
11354.0      6.20522
11356.0      6.62307
11358.0      6.90506
11360.0      7.14314
11362.0      7.64487
11364.0      8.31722
11366.0      8.75236
11368.0      9.01889
11370.0      8.81547
11372.0      8.78471
11374.0      9.05026
11376.0      9.58964
11378.0      9.75563
11380.0      9.82156
11382.0      9.73747
11384.0      9.47686
11386.0      9.33364
11388.0      9.34435
11390.0      9.46465
11392.0      9.50251
11394.0      9.18780
11396.0      9.14640
11398.0      9.11235
11400.0      9.17594
11402.0      9.28900
11404.0      9.28493
11406.0      9.04808
11408.0      8.92739
11410.0      8.88430
11412.0      8.89425
11414.0      9.07593
11416.0      9.26473
11418.0      9.27210
11420.0      9.22807
11422.0      9.09626
11424.0      9.29605
11426.0      9.16045
11428.0      8.75291
11430.0      8.85770
11432.0      8.87949
11434.0      8.58283
11436.0      8.60984
11438.0      8.53037
11440.0      8.29285
11442.0      8.24287
11444.0      8.08077
11446.0      7.97928
11448.0      7.80223
11450.0      7.48339
11452.0      7.31192
11454.0      7.27972
11456.0      7.23547
11458.0      7.38235
11460.0      7.28593
11462.0      7.20845
11464.0      7.44737
11466.0      7.63811
11468.0      7.79943
11470.0      8.06453
11472.0      7.85037
11474.0      7.85367
11476.0      7.99851
11478.0      8.13777
11480.0      8.20057
11482.0      8.23339
11484.0      8.07501
11486.0      8.15830
11488.0      8.42832
11490.0      8.78104
11492.0      8.87921
11494.0      8.77614
11496.0      8.66754
11498.0      8.44718
11500.0      8.40586
11502.0      8.54241
11504.0      8.59237
11506.0      8.44910
11508.0      8.40955
11510.0      8.22592
11512.0      8.20224
11514.0      8.52964
11516.0      8.75331
11518.0      8.75399
11520.0      8.63515
11522.0      8.52395
11524.0      8.57067
11526.0      8.47597
11528.0      8.51107
11530.0      8.49132
11532.0      8.53606
11534.0      8.56098
11536.0      8.76275
11538.0      8.74533
11540.0      8.85730
11542.0      9.05584
11544.0      9.12223
11546.0      9.13175
11548.0      9.07126
11550.0      8.97713
11552.0      9.13326
11554.0      9.27215
11556.0      9.38942
11558.0      9.46723
11560.0      9.59303
11562.0      9.41541
11564.0      9.35520
11566.0      9.47751
11568.0      9.48724
11570.0      9.51452
11572.0      9.71831
11574.0      9.70526
11576.0      9.72507
11578.0      9.70133
11580.0      9.83269
11582.0      9.81108
11584.0      9.76827
11586.0      9.72099
11588.0      9.62693
11590.0      9.60436
11592.0      9.65894
11594.0      9.87597
11596.0      9.90974
11598.0      9.86792
11600.0      9.88414
11602.0      9.87523
11604.0      10.0069
11606.0      9.99011
11608.0      9.91236
11610.0      9.94095
11612.0      10.0440
11614.0      10.0874
11616.0      10.1853
11618.0      10.3416
11620.0      10.4596
11622.0      10.4752
11624.0      10.5285
11626.0      10.5246
11628.0      10.5844
11630.0      10.6508
11632.0      10.6879
11634.0      10.6794
11636.0      10.6564
11638.0      10.6792
11640.0      10.7145
11642.0      10.6232
11644.0      10.5693
11646.0      10.5710
11648.0      10.5441
11650.0      10.5303
11652.0      10.5264
11654.0      10.5233
11656.0      10.4786
11658.0      10.4717
11660.0      10.4506
11662.0      10.3946
11664.0      10.4122
11666.0      10.4202
11668.0      10.4813
11670.0      10.4593
11672.0      10.5014
11674.0      10.5835
11676.0      10.6043
11678.0      10.5978
11680.0      10.6495
11682.0      10.7804
11684.0      10.8240
11686.0      10.8586
11688.0      10.8402
11690.0      10.8087
11692.0      10.8674
11694.0      10.8401
11696.0      10.8570
11698.0      10.8888
11700.0      10.8933
11702.0      10.9268
11704.0      10.9459
11706.0      10.9219
11708.0      10.8448
11710.0      10.8380
11712.0      10.7594
11714.0      10.7078
11716.0      10.6581
11718.0      10.6724
11720.0      10.6752
11722.0      10.6321
11724.0      10.5430
11726.0      10.4869
11728.0      10.3850
11730.0      10.4022
11732.0      10.4187
11734.0      10.4275
11736.0      10.4304
11738.0      10.4279
11740.0      10.3887
11742.0      10.3603
11744.0      10.3667
11746.0      10.4123
11748.0      10.4310
11750.0      10.4362
11752.0      10.4615
11754.0      10.5828
11756.0      10.6722
11758.0      10.7109
11760.0      10.6420
11762.0      10.5274
11764.0      10.5076
11766.0      10.5023
11768.0      10.5244
11770.0      10.6183
11772.0      10.6703
11774.0      10.7223
11776.0      10.7290
11778.0      10.7149
11780.0      10.6550
11782.0      10.6165
11784.0      10.5864
11786.0      10.5793
11788.0      10.6115
11790.0      10.7069
11792.0      10.8087
11794.0      10.8497
11796.0      10.8138
11798.0      10.8083
11800.0      10.8004
11802.0      10.6353
11804.0      10.5162
11806.0      10.3778
11808.0      10.3358
11810.0      10.3704
11812.0      10.4057
11814.0      10.4222
11816.0      10.4032
11818.0      10.3903
11820.0      10.4087
11822.0      10.3942
11824.0      10.3891
11826.0      10.3413
11828.0      10.2796
11830.0      10.2159
11832.0      10.2358
11834.0      10.2668
11836.0      10.3271
11838.0      10.4012
11840.0      10.4374
11842.0      10.5249
11844.0      10.5043
11846.0      10.4946
11848.0      10.4917
11850.0      10.4584
11852.0      10.4454
11854.0      10.4656
11856.0      10.4823
11858.0      10.5396
11860.0      10.5627
11862.0      10.5903
11864.0      10.6486
11866.0      10.6200
11868.0      10.5842
11870.0      10.5343
11872.0      10.4776
11874.0      10.4706
11876.0      10.4672
11878.0      10.4890
11880.0      10.5493
11882.0      10.5752
11884.0      10.5712
11886.0      10.5540
11888.0      10.5392
11890.0      10.5804
11892.0      10.6088
11894.0      10.5694
11896.0      10.6141
11898.0      10.6505
11900.0      10.6616
11902.0      10.6387
11904.0      10.6272
11906.0      10.6554
11908.0      10.6576
11910.0      10.6165
11912.0      10.5750
11914.0      10.5804
11916.0      10.5851
11918.0      10.5781
11920.0      10.5106
11922.0      10.4732
11924.0      10.4739
11926.0      10.5025
11928.0      10.5067
11930.0      10.4652
11932.0      10.5005
11934.0      10.5329
11936.0      10.5183
11938.0      10.5205
11940.0      10.4737
11942.0      10.4351
11944.0      10.4212
11946.0      10.4040
11948.0      10.3912
11950.0      10.4358
11952.0      10.4890
11954.0      10.5386
11956.0      10.5243
11958.0      10.5022
11960.0      10.4771
11962.0      10.4066
11964.0      10.3413
11966.0      10.3655
11968.0      10.3887
11970.0      10.3911
11972.0      10.3394
11974.0      10.2546
11976.0      10.2205
11978.0      10.2445
11980.0      10.2699
11982.0      10.2407
11984.0      10.1697
11986.0      10.1312
11988.0      10.1104
11990.0      10.1926
11992.0      10.2313
11994.0      10.2232
11996.0      10.2158
11998.0      10.1313
12000.0      10.0891
12002.0      10.0765
12004.0      10.1190
12006.0      10.1647
12008.0      10.1820
12010.0      10.1629
12012.0      10.1769
12014.0      10.2554
12016.0      10.2417
12018.0      10.2755
12020.0      10.2662
12022.0      10.1438
12024.0      10.1294
12026.0      10.1261
12028.0      10.1520
12030.0      10.1891
12032.0      10.2497
12034.0      10.2976
12036.0      10.2698
12038.0      10.2490
12040.0      10.2445
12042.0      10.2765
12044.0      10.2837
12046.0      10.2988
12048.0      10.3114
12050.0      10.2797
12052.0      10.3617
12054.0      10.4677
12056.0      10.4575
12058.0      10.4162
12060.0      10.3782
12062.0      10.3814
12064.0      10.3995
12066.0      10.4239
12068.0      10.4289
12070.0      10.4385
12072.0      10.4256
12074.0      10.3634
12076.0      10.2650
12078.0      10.1790
12080.0      10.1378
12082.0      10.0834
12084.0      10.0198
12086.0      10.0281
12088.0      10.0665
12090.0      10.1363
12092.0      10.1426
12094.0      10.1368
12096.0      10.1374
12098.0      10.0471
12100.0      10.0219
12102.0      10.0125
12104.0      9.98996
12106.0      10.1263
12108.0      10.2393
12110.0      10.3285
12112.0      10.3875
12114.0      10.4470
12116.0      10.4893
12118.0      10.5003
12120.0      10.4954
12122.0      10.4904
12124.0      10.4887
12126.0      10.4715
12128.0      10.5438
12130.0      10.5540
12132.0      10.5573
12134.0      10.5487
12136.0      10.5329
12138.0      10.5147
12140.0      10.4601
12142.0      10.4682
12144.0      10.4941
12146.0      10.4868
12148.0      10.4848
12150.0      10.4524
12152.0      10.4172
12154.0      10.4053
12156.0      10.4293
12158.0      10.4630
12160.0      10.4910
12162.0      10.4945
12164.0      10.5051
12166.0      10.5208
12168.0      10.5167
12170.0      10.5251
12172.0      10.5292
12174.0      10.4900
12176.0      10.4628
12178.0      10.4218
12180.0      10.4525
12182.0      10.4537
12184.0      10.4632
12186.0      10.4466
12188.0      10.4283
12190.0      10.4092
12192.0      10.4121
12194.0      10.4248
12196.0      10.4147
12198.0      10.3926
12200.0      10.3930
12202.0      10.3788
12204.0      10.3584
12206.0      10.3911
12208.0      10.4224
12210.0      10.3985
12212.0      10.3690
12214.0      10.4582
12216.0      10.4658
12218.0      10.4715
12220.0      10.4862
12222.0      10.4834
12224.0      10.4600
12226.0      10.4723
12228.0      10.4769
12230.0      10.4721
12232.0      10.4903
12234.0      10.5229
12236.0      10.5189
12238.0      10.5018
12240.0      10.5355
12242.0      10.6172
12244.0      10.5908
12246.0      10.5645
12248.0      10.5417
12250.0      10.4960
12252.0      10.4731
12254.0      10.4568
12256.0      10.4010
12258.0      10.3961
12260.0      10.4037
12262.0      10.3925
12264.0      10.3754
12266.0      10.3704
12268.0      10.3472
12270.0      10.3519
12272.0      10.2795
12274.0      10.2125
12276.0      10.1863
12278.0      10.1957
12280.0      10.2271
12282.0      10.2184
12284.0      10.1958
12286.0      10.2655
12288.0      10.3006
12290.0      10.2953
12292.0      10.2970
12294.0      10.3165
12296.0      10.2960
12298.0      10.3124
12300.0      10.3167
12302.0      10.3321
12304.0      10.3597
12306.0      10.4003
12308.0      10.4108
12310.0      10.4373
12312.0      10.5550
12314.0      10.7624
12316.0      10.7417
12318.0      10.6900
12320.0      10.6868
12322.0      10.6911
12324.0      10.6682
12326.0      10.6972
12328.0      10.7115
12330.0      10.7000
12332.0      10.6775
12334.0      10.6634
12336.0      10.6349
12338.0      10.6760
12340.0      10.6712
12342.0      10.6326
12344.0      10.4072
12346.0      10.3989
12348.0      10.4190
12350.0      10.4213
12352.0      10.4119
12354.0      10.4042
12356.0      10.3954
12358.0      10.4024
12360.0      10.4249
12362.0      10.4357
12364.0      10.4368
12366.0      10.4850
12368.0      10.4201
12370.0      10.4058
12372.0      10.3782
12374.0      10.3704
12376.0      10.3733
12378.0      10.3705
12380.0      10.3362
12382.0      10.3155
12384.0      10.2999
12386.0      10.2870
12388.0      10.2840
12390.0      10.2642
12392.0      10.2531
12394.0      10.2306
12396.0      10.2003
12398.0      10.1373
12400.0      10.0515
12402.0      9.97581
12404.0      9.98078
12406.0      10.0150
12408.0      10.0645
12410.0      10.0908
12412.0      10.1258
12414.0      10.1414
12416.0      10.1396
12418.0      10.1079
12420.0      10.0715
12422.0      10.0551
12424.0      10.0524
12426.0      10.0634
12428.0      10.0919
12430.0      10.1603
12432.0      10.2370
12434.0      10.2600
12436.0      10.2411
12438.0      10.1749
12440.0      10.1427
12442.0      10.1177
12444.0      10.1057
12446.0      10.1194
12448.0      10.1396
12450.0      10.1358
12452.0      10.1343
12454.0      10.1523
12456.0      10.1785
12458.0      10.1900
12460.0      10.1846
12462.0      10.1831
12464.0      10.1888
12466.0      10.2026
12468.0      10.1886
12470.0      10.1816
12472.0      10.2051
12474.0      10.2064
12476.0      10.1983
12478.0      10.1995
12480.0      10.2097
12482.0      10.2288
12484.0      10.2409
12486.0      10.1925
12488.0      10.1861
12490.0      10.1698
12492.0      10.1682
12494.0      10.1753
12496.0      10.1684
12498.0      10.1640
12500.0      10.1743
12502.0      10.1632
12504.0      10.1556
12506.0      10.1650
12508.0      10.1655
12510.0      10.1547
12512.0      10.1315
12514.0      10.1192
12516.0      10.1434
12518.0      10.1536
12520.0      10.1523
12522.0      10.1781
12524.0      10.1778
12526.0      10.1458
12528.0      10.1208
12530.0      10.0897
12532.0      10.0765
12534.0      10.0637
12536.0      10.0601
12538.0      10.0422
12540.0      10.0204
12542.0      10.0073
12544.0      10.0001
12546.0      9.94652
12548.0      9.89619
12550.0      9.89792
12552.0      9.88307
12554.0      9.87265
12556.0      9.87988
12558.0      9.85780
12560.0      9.85059
12562.0      9.87256
12564.0      9.87255
12566.0      9.82281
12568.0      9.81369
12570.0      9.80458
12572.0      9.82705
12574.0      9.77860
12576.0      9.77151
12578.0      9.78404
12580.0      9.76525
12582.0      9.76635
12584.0      9.68187
12586.0      9.61360
12588.0      9.53365
12590.0      9.51523
12592.0      9.40603
12594.0      9.29379
12596.0      9.30860
12598.0      9.29874
12600.0      9.21276
12602.0      9.15708
12604.0      9.13357
12606.0      9.11389
12608.0      9.08720
12610.0      9.05330
12612.0      9.00754
12614.0      9.01686
12616.0      9.04576
12618.0      9.09164
12620.0      9.09874
12622.0      9.15857
12624.0      9.23553
12626.0      9.20966
12628.0      9.14566
12630.0      9.20526
12632.0      9.18708
12634.0      9.17796
12636.0      9.16435
12638.0      9.15646
12640.0      9.17460
12642.0      9.15156
12644.0      9.10472
12646.0      9.09398
12648.0      9.07639
12650.0      9.07234
12652.0      9.03918
12654.0      9.03552
12656.0      9.06853
12658.0      9.08777
12660.0      9.07644
12662.0      9.02660
12664.0      9.01775
12666.0      9.03549
12668.0      8.99564
12670.0      8.85513
12672.0      8.63898
12674.0      8.52054
12676.0      8.41401
12678.0      8.38407
12680.0      8.34577
12682.0      8.33615
12684.0      8.34103
12686.0      8.29256
12688.0      8.30856
12690.0      8.33924
12692.0      8.35042
12694.0      8.38818
12696.0      8.39144
12698.0      8.46459
12700.0      8.55890
12702.0      8.77693
12704.0      8.95410
12706.0      9.10236
12708.0      9.17049
12710.0      9.24510
12712.0      9.27891
12714.0      9.28393
12716.0      9.30926
12718.0      9.34725
12720.0      9.34397
12722.0      9.34870
12724.0      9.35750
12726.0      9.39071
12728.0      9.38575
12730.0      9.38710
12732.0      9.38709
12734.0      9.37775
12736.0      9.38271
12738.0      9.38688
12740.0      9.44216
12742.0      9.45943
12744.0      9.46760
12746.0      9.47075
12748.0      9.40419
12750.0      9.37372
12752.0      9.42462
12754.0      9.45936
12756.0      9.47746
12758.0      9.49107
12760.0      9.50177
12762.0      9.50546
12764.0      9.55107
12766.0      9.60953
12768.0      9.59464
12770.0      9.59002
12772.0      9.57955
12774.0      9.59714
12776.0      9.63885
12778.0      9.67810
12780.0      9.75235
12782.0      9.75121
12784.0      9.75433
12786.0      9.77686
12788.0      9.79944
12790.0      9.82592
12792.0      9.81330
12794.0      9.81143
12796.0      9.76900
12798.0      9.80614
12800.0      9.80146
12802.0      9.82803
12804.0      9.85288
12806.0      9.85301
12808.0      9.85735
12810.0      9.86587
12812.0      9.86129
12814.0      9.88015
12816.0      9.87872
12818.0      9.86830
12820.0      9.81918
12822.0      9.83116
12824.0      9.87379
12826.0      9.88420
12828.0      9.90503
12830.0      9.90165
12832.0      9.87795
12834.0      9.85015
12836.0      9.86312
12838.0      9.87862
12840.0      9.86679
12842.0      9.86408
12844.0      9.85907
12846.0      9.81315
12848.0      9.81287
12850.0      9.77588
12852.0      9.78149
12854.0      9.78075
12856.0      9.79158
12858.0      9.78590
12860.0      9.75779
12862.0      9.75978
12864.0      9.75793
12866.0      9.73472
12868.0      9.72630
12870.0      9.74449
12872.0      9.69204
12874.0      9.64427
12876.0      9.66212
12878.0      9.68277
12880.0      9.72593
12882.0      9.74909
12884.0      9.76823
12886.0      9.73273
12888.0      9.68644
12890.0      9.59971
12892.0      9.61310
12894.0      9.60592
12896.0      9.61351
12898.0      9.62354
12900.0      9.61426
12902.0      9.63893
12904.0      9.69350
12906.0      9.69538
12908.0      9.70856
12910.0      9.68930
12912.0      9.67906
12914.0      9.66694
12916.0      9.66374
12918.0      9.68319
12920.0      9.78140
12922.0      9.81898
12924.0      9.81238
12926.0      9.79024
12928.0      9.75022
12930.0      9.68735
12932.0      9.63557
12934.0      9.61795
12936.0      9.63924
12938.0      9.62337
12940.0      9.58049
12942.0      9.57476
12944.0      9.55126
12946.0      9.55435
12948.0      9.57417
12950.0      9.55160
12952.0      9.52510
12954.0      9.51023
12956.0      9.52382
12958.0      9.52109
12960.0      9.55019
12962.0      9.58560
12964.0      9.54249
12966.0      9.51478
12968.0      9.51489
12970.0      9.58017
12972.0      9.60513
12974.0      9.62356
12976.0      9.62171
12978.0      9.60314
12980.0      9.59626
12982.0      9.58328
12984.0      9.59195
12986.0      9.59144
12988.0      9.59441
12990.0      9.59605
12992.0      9.58804
12994.0      9.61937
12996.0      9.63774
12998.0      9.62981
13000.0      9.61576
13002.0      9.62057
13004.0      9.64038
13006.0      9.62904
13008.0      9.63798
13010.0      9.65347
13012.0      9.62710
13014.0      9.64361
13016.0      9.64934
13018.0      9.64995
13020.0      9.63513
13022.0      9.63707
13024.0      9.61693
13026.0      9.58431
13028.0      9.51297
13030.0      9.47108
13032.0      9.41593
13034.0      9.33912
13036.0      9.37404
13038.0      9.33596
13040.0      9.30124
13042.0      9.31783
13044.0      9.31960
13046.0      9.27379
13048.0      9.22498
13050.0      9.18344
13052.0      9.12540
13054.0      9.10327
13056.0      9.10741
13058.0      9.17400
13060.0      9.21989
13062.0      9.22204
13064.0      9.22411
13066.0      9.13615
13068.0      9.15481
13070.0      9.18720
13072.0      9.15386
13074.0      9.14440
13076.0      9.15480
13078.0      9.20446
13080.0      9.18953
13082.0      9.18653
13084.0      9.15645
13086.0      9.18513
13088.0      9.14986
13090.0      9.04606
13092.0      9.01254
13094.0      9.01532
13096.0      9.08621
13098.0      9.08918
13100.0      9.06716
13102.0      9.11014
13104.0      9.11746
13106.0      9.07468
13108.0      9.02861
13110.0      9.05404
13112.0      9.13113
13114.0      9.13660
13116.0      9.12071
13118.0      9.12275
13120.0      9.09809
13122.0      9.02946
13124.0      9.03232
13126.0      9.00747
13128.0      8.99222
13130.0      8.96611
13132.0      8.88501
13134.0      8.82621
13136.0      8.84802
13138.0      8.80044
13140.0      8.72311
13142.0      8.72640
13144.0      8.79801
13146.0      8.83072
13148.0      8.86605
13150.0      8.94283
13152.0      9.06551
13154.0      8.98229
13156.0      8.96403
13158.0      8.98508
13160.0      9.01732
13162.0      9.06255
13164.0      9.13845
13166.0      9.10230
13168.0      9.08253
13170.0      9.14000
13172.0      9.08446
13174.0      9.02337
13176.0      9.01711
13178.0      8.90765
13180.0      8.84135
13182.0      8.84339
13184.0      8.83948
13186.0      8.77668
13188.0      8.70344
13190.0      8.64465
13192.0      8.62618
13194.0      8.60384
13196.0      8.57371
13198.0      8.54427
13200.0      8.52378
13202.0      8.58650
13204.0      8.60910
13206.0      8.56039
13208.0      8.60046
13210.0      8.61880
13212.0      8.57974
13214.0      8.56549
13216.0      8.57953
13218.0      8.59486
13220.0      8.70458
13222.0      8.70787
13224.0      8.64024
13226.0      8.54713
13228.0      8.56355
13230.0      8.64760
13232.0      8.66588
13234.0      8.66013
13236.0      8.67108
13238.0      8.64096
13240.0      8.63961
13242.0      8.64187
13244.0      8.69720
13246.0      8.78721
13248.0      8.83148
13250.0      8.78167
13252.0      8.73158
13254.0      8.67777
13256.0      8.70743
13258.0      8.80573
13260.0      8.80137
13262.0      8.71648
13264.0      8.70539
13266.0      8.69537
13268.0      8.56728
13270.0      8.53668
13272.0      8.40743
13274.0      8.33814
13276.0      8.18986
13278.0      8.14496
13280.0      8.14508
13282.0      8.12177
13284.0      8.15369
13286.0      8.13393
13288.0      8.10343
13290.0      8.06530
13292.0      8.01485
13294.0      7.96323
13296.0      7.83323
13298.0      7.74926
13300.0      7.74427
13302.0      7.73143
13304.0      7.64744
13306.0      7.69599
13308.0      7.68450
13310.0      7.52823
13312.0      7.47981
13314.0      7.44133
13316.0      7.51528
13318.0      7.55795
13320.0      7.45811
13322.0      7.31016
13324.0      7.24096
13326.0      7.23599
13328.0      7.46394
13330.0      7.58708
13332.0      7.58495
13334.0      7.63022
13336.0      7.68291
13338.0      7.73504
13340.0      7.92608
13342.0      7.91652
13344.0      7.69118
13346.0      7.59041
13348.0      7.58521
13350.0      7.66567
13352.0      7.86228
13354.0      7.91897
13356.0      7.93712
13358.0      7.82321
13360.0      7.67729
13362.0      7.65045
13364.0      7.63947
13366.0      7.63837
13368.0      7.65731
13370.0      7.62048
13372.0      7.52253
13374.0      7.71014
13376.0      7.83860
13378.0      7.76408
13380.0      7.76326
13382.0      7.77436
13384.0      7.77616
13386.0      7.67483
13388.0      7.53503
13390.0      7.49176
13392.0      7.52812
13394.0      7.68430
13396.0      7.72530
13398.0      7.58943
13400.0      7.44376
13402.0      7.49380
13404.0      7.53376
13406.0      7.60554
13408.0      7.75734
13410.0      7.74068
13412.0      7.60063
13414.0      7.56728
13416.0      7.66794
13418.0      7.85882
13420.0      8.08288
13422.0      7.99828
13424.0      7.69846
13426.0      7.43540
13428.0      7.34495
13430.0      7.17576
13432.0      7.06104
13434.0      6.99464
13436.0      6.97453
13438.0      6.83397
13440.0      6.61072
13442.0      6.54002
13444.0      6.44077
13446.0      6.41539
13448.0      6.31005
13450.0      6.00435
13452.0      5.97113
13454.0      6.17785
13456.0      6.36975
13458.0      6.44023
13460.0      6.39715
13462.0      6.11268
13464.0      5.84009
13466.0      5.54627
13468.0      5.19773
13470.0      5.09844
13472.0      4.97575
13474.0      4.83078
13476.0      4.71769
13478.0      4.71261
13480.0      4.97933
13482.0      5.02586
13484.0      4.83468
13486.0      4.55259
13488.0      4.22333
13490.0      4.02457
13492.0      4.13142
13494.0      4.32150
13496.0      4.43512
13498.0      4.41950
13500.0      4.39239
13502.0      4.18760
13504.0      4.14906
13506.0      4.19017
13508.0      4.01073
13510.0      3.62283
13512.0      3.44531
13514.0      3.27905
13516.0      3.04821
13518.0      3.10452
13520.0      3.17095
13522.0      3.17167
13524.0      3.17457
13526.0      2.87107
13528.0      2.64103
13530.0      2.55042
13532.0      2.43280
13534.0      2.29820
13536.0      2.02231
13538.0      1.84764
13540.0      1.82202
13542.0      1.60394
13544.0      1.40955
13546.0      1.44378
13548.0      1.48640
13550.0      1.53107
13552.0      1.60782
13554.0      1.43461
13556.0      1.34081
13558.0      1.39422
13560.0      1.40553
13562.0      1.43045
13564.0      1.55755
13566.0      1.62732
13568.0      1.54009
13570.0      1.45042
13572.0      1.45783
13574.0      1.56115
13576.0      1.55637
13578.0      1.45147
13580.0      1.21873
13582.0     0.992581
13584.0     0.964213
13586.0      1.01339
13588.0     0.998064
13590.0     0.988278
13592.0     0.960468
13594.0     0.852696
13596.0     0.731976
13598.0     0.702380
13600.0     0.662660
13602.0     0.607359
13604.0     0.488272
13606.0     0.371169
13608.0     0.350495
13610.0     0.348356
13612.0     0.349842
13614.0     0.331708
13616.0     0.409533
13618.0     0.476902
13620.0     0.473275
13622.0     0.578222
13624.0     0.631079
13626.0     0.637728
13628.0     0.631784
13630.0     0.625083
13632.0     0.623549
13634.0     0.636477
13636.0     0.654666
13638.0     0.656517
13640.0     0.671165
13642.0     0.768043
13644.0     0.895111
13646.0     0.871876
13648.0     0.825665
13650.0     0.902760
13652.0     0.822305
13654.0     0.756162
13656.0     0.788849
13658.0     0.831965
13660.0     0.837920
13662.0     0.846204
13664.0     0.849272
13666.0     0.836990
13668.0     0.830327
13670.0     0.825308
13672.0     0.767986
13674.0     0.684001
13676.0     0.601000
13678.0     0.600980
13680.0     0.581633
13682.0     0.563930
13684.0     0.550011
13686.0     0.538958
13688.0     0.537968
13690.0     0.571485
13692.0     0.586936
13694.0     0.583671
13696.0     0.579471
13698.0     0.600051
13700.0     0.653361
13702.0     0.694543
13704.0     0.680229
13706.0     0.604869
13708.0     0.556462
13710.0     0.515016
13712.0     0.543542
13714.0     0.601421
13716.0     0.668953
13718.0     0.652867
13720.0     0.711957
13722.0     0.859996
13724.0     0.981233
13726.0      1.12987
13728.0      1.19511
13730.0      1.22587
13732.0      1.23750
13734.0      1.22198
13736.0      1.34321
13738.0      1.62873
13740.0      1.84590
13742.0      1.83681
13744.0      1.80041
13746.0      1.79697
13748.0      1.91591
13750.0      1.98585
13752.0      1.87833
13754.0      1.77152
13756.0      1.64525
13758.0      1.68569
13760.0      1.89513
13762.0      2.17368
13764.0      2.44636
13766.0      2.51183
13768.0      2.34897
13770.0      2.06010
13772.0      1.89675
13774.0      1.89471
13776.0      1.96521
13778.0      1.96097
13780.0      2.08006
13782.0      2.22225
13784.0      2.30347
13786.0      2.32279
13788.0      2.23181
13790.0      1.98846
13792.0      1.62856
13794.0      1.29445
13796.0      1.13689
13798.0      1.09832
13800.0      1.20742
13802.0      1.26383
13804.0      1.25841
13806.0      1.17341
13808.0      1.06094
13810.0     0.808495
13812.0     0.555535
13814.0     0.405754
13816.0     0.389302
13818.0     0.419392
13820.0     0.436066
13822.0     0.441026
13824.0     0.456225
13826.0     0.520569
13828.0     0.522486
13830.0     0.455877
13832.0     0.415450
13834.0     0.397926
13836.0     0.382775
13838.0     0.384460
13840.0     0.475103
13842.0     0.514843
13844.0     0.554677
13846.0     0.658127
13848.0     0.661083
13850.0     0.704150
13852.0     0.885855
13854.0      1.09006
13856.0      1.18077
13858.0      1.34299
13860.0      1.38041
13862.0      1.32899
13864.0      1.31905
13866.0      1.32285
13868.0      1.31775
13870.0      1.34851
13872.0      1.48600
13874.0      1.59196
13876.0      1.77076
13878.0      2.03825
13880.0      2.22103
13882.0      2.17392
13884.0      2.00454
13886.0      2.10095
13888.0      2.19143
13890.0      2.25510
13892.0      2.29887
13894.0      2.42432
13896.0      2.68677
13898.0      3.00208
13900.0      3.17886
13902.0      3.13354
13904.0      3.07853
13906.0      2.85800
13908.0      2.51063
13910.0      2.26136
13912.0      2.12737
13914.0      2.17842
13916.0      2.20115
13918.0      2.13183
13920.0      2.04180
13922.0      2.10676
13924.0      2.12789
13926.0      2.07617
13928.0      1.95891
13930.0      1.73658
13932.0      1.58463
13934.0      1.47866
13936.0      1.44748
13938.0      1.45578
13940.0      1.45730
13942.0      1.45453
13944.0      1.45355
13946.0      1.33332
13948.0      1.06570
13950.0     0.883486
13952.0     0.769612
13954.0     0.798921
13956.0     0.723868
13958.0     0.646851
13960.0     0.864298
13962.0      1.24842
13964.0      1.52621
13966.0      1.69323
13968.0      1.86604
13970.0      2.02993
13972.0      2.37933
13974.0      2.59902
13976.0      2.71837
13978.0      2.79412
13980.0      2.81355
13982.0      2.82875
13984.0      2.71029
13986.0      2.63507
13988.0      2.56454
13990.0      2.27978
13992.0      1.90042
13994.0      1.59628
13996.0      1.43021
13998.0      1.25044
14000.0      1.13234
14002.0     0.863587
14004.0     0.710468
14006.0     0.717449
14008.0      1.02229
14010.0      1.37283
14012.0      1.54887
14014.0      1.63277
14016.0      1.72774
14018.0      1.93551
14020.0      2.21681
14022.0      2.41225
14024.0      2.47214
14026.0      2.48566
14028.0      2.50784
14030.0      2.54312
14032.0      2.53119
14034.0      2.39736
14036.0      2.24595
14038.0      1.91629
14040.0      1.72563
14042.0      1.68805
14044.0      1.86930
14046.0      2.04405
14048.0      2.14473
14050.0      2.01561
14052.0      1.82358
14054.0      1.71728
14056.0      1.67659
14058.0      1.64389
14060.0      1.67329
14062.0      1.90400
14064.0      2.26095
14066.0      2.50623
14068.0      2.66499
14070.0      2.80430
14072.0      2.75658
14074.0      2.50554
14076.0      2.24489
14078.0      1.99023
14080.0      1.76966
14082.0      1.77581
14084.0      1.83504
14086.0      2.04635
14088.0      2.24215
14090.0      2.33902
14092.0      2.39667
14094.0      2.27913
14096.0      2.09361
14098.0      2.06192
14100.0      1.99522
14102.0      2.08304
14104.0      2.30709
14106.0      2.41079
14108.0      2.46414
14110.0      2.69087
14112.0      3.06842
14114.0      3.43102
14116.0      3.71714
14118.0      3.88067
14120.0      3.82565
14122.0      3.80173
14124.0      3.70285
14126.0      3.60454
14128.0      3.54194
14130.0      3.41396
14132.0      3.15568
14134.0      2.92090
14136.0      2.86783
14138.0      2.89461
14140.0      2.89934
14142.0      2.80109
14144.0      2.70997
14146.0      2.67570
14148.0      2.62704
14150.0      2.73964
14152.0      2.88002
14154.0      2.92368
14156.0      3.16599
14158.0      3.41841
14160.0      3.48208
14162.0      3.67653
14164.0      3.87420
14166.0      3.99332
14168.0      4.29539
14170.0      4.46591
14172.0      4.32037
14174.0      4.03093
14176.0      3.66412
14178.0      3.27625
14180.0      3.06811
14182.0      2.94306
14184.0      2.83740
14186.0      2.82875
14188.0      2.78382
14190.0      2.73188
14192.0      2.75465
14194.0      2.80280
14196.0      2.86033
14198.0      2.82174
14200.0      2.65961
14202.0      2.89353
14204.0      3.22877
14206.0      3.56062
14208.0      3.99272
14210.0      4.22283
14212.0      4.28049
14214.0      4.42626
14216.0      4.35091
14218.0      4.10845
14220.0      4.22172
14222.0      4.23271
14224.0      3.93538
14226.0      3.91294
14228.0      4.00212
14230.0      4.22500
14232.0      4.30795
14234.0      4.21983
14236.0      4.19339
14238.0      4.01494
14240.0      3.81930
14242.0      3.77795
14244.0      3.71165
14246.0      3.90811
14248.0      4.25069
14250.0      4.50439
14252.0      4.63150
14254.0      4.96561
14256.0      5.04286
14258.0      4.86264
14260.0      4.65128
14262.0      4.40707
14264.0      4.36853
14266.0      4.17678
14268.0      4.07171
14270.0      4.06210
14272.0      4.15891
14274.0      4.15215
14276.0      4.19827
14278.0      4.27107
14280.0      4.20120
14282.0      4.12703
14284.0      4.00014
14286.0      4.16918
14288.0      4.48487
14290.0      4.74274
14292.0      5.00522
14294.0      4.95743
14296.0      4.86834
14298.0      4.90026
14300.0      4.83548
14302.0      4.70518
14304.0      4.70855
14306.0      4.63482
14308.0      4.17322
14310.0      3.84625
14312.0      3.75264
14314.0      3.83110
14316.0      3.81495
14318.0      3.73052
14320.0      3.53808
14322.0      3.33822
14324.0      3.37689
14326.0      3.46560
14328.0      3.39479
14330.0      3.44052
14332.0      3.69842
14334.0      3.95580
14336.0      3.96203
14338.0      4.19764
14340.0      4.56118
14342.0      4.79675
14344.0      4.73728
14346.0      4.54634
14348.0      4.41233
14350.0      4.38119
14352.0      4.50065
14354.0      4.51170
14356.0      4.47820
14358.0      4.55723
14360.0      4.52561
14362.0      4.23272
14364.0      3.95712
14366.0      3.95914
14368.0      4.06094
14370.0      4.01722
14372.0      4.00408
14374.0      4.11014
14376.0      4.31512
14378.0      4.28164
14380.0      4.03393
14382.0      3.93078
14384.0      3.95464
14386.0      4.13773
14388.0      4.28244
14390.0      4.41992
14392.0      4.76469
14394.0      5.06527
14396.0      5.16756
14398.0      4.92988
14400.0      4.74712
14402.0      4.68509
14404.0      4.64676
14406.0      4.61151
14408.0      4.66825
14410.0      4.96811
14412.0      4.93700
14414.0      4.67431
14416.0      4.59879
14418.0      4.69303
14420.0      4.87913
14422.0      4.97248
14424.0      4.99727
14426.0      4.93695
14428.0      4.97926
14430.0      5.26077
14432.0      5.39787
14434.0      5.40756
14436.0      5.33474
14438.0      5.20039
14440.0      4.83728
14442.0      4.59346
14444.0      4.68217
14446.0      4.70225
14448.0      4.63487
14450.0      4.59811
14452.0      4.48109
14454.0      4.33211
14456.0      4.26274
14458.0      4.32307
14460.0      4.43049
14462.0      4.50484
14464.0      4.58265
14466.0      4.61635
14468.0      4.84020
14470.0      5.23361
14472.0      5.61234
14474.0      5.88984
14476.0      6.11361
14478.0      6.23036
14480.0      6.20965
14482.0      6.13687
14484.0      6.15108
14486.0      6.08500
14488.0      5.92785
14490.0      5.58693
14492.0      5.22113
14494.0      4.79325
14496.0      4.53271
14498.0      4.50123
14500.0      4.51061
14502.0      4.54036
14504.0      4.34916
14506.0      4.06946
14508.0      3.93544
14510.0      3.97994
14512.0      4.05477
14514.0      4.02212
14516.0      4.20364
14518.0      4.53811
14520.0      4.91810
14522.0      5.30848
14524.0      5.65498
14526.0      6.03372
14528.0      6.12373
14530.0      6.11687
14532.0      6.17551
14534.0      6.34020
14536.0      6.42577
14538.0      6.31965
14540.0      6.24666
14542.0      6.25562
14544.0      6.43932
14546.0      6.49698
14548.0      6.41262
14550.0      6.35558
14552.0      6.39469
14554.0      6.34366
14556.0      6.31537
14558.0      6.32968
14560.0      6.27607
14562.0      6.08575
14564.0      6.10805
14566.0      6.31906
14568.0      6.67544
14570.0      6.81132
14572.0      6.85974
14574.0      6.85539
14576.0      6.74583
14578.0      6.73167
14580.0      6.84073
14582.0      6.70402
14584.0      6.63912
14586.0      6.42271
14588.0      6.17229
14590.0      6.11179
14592.0      6.29962
14594.0      6.31127
14596.0      6.08717
14598.0      5.87619
14600.0      5.81329
14602.0      5.74494
14604.0      5.72587
14606.0      5.84053
14608.0      5.99056
14610.0      5.96426
14612.0      5.97643
14614.0      5.84443
14616.0      5.68203
14618.0      5.79408
14620.0      5.96912
14622.0      5.99261
14624.0      5.94857
14626.0      6.14296
14628.0      6.40458
14630.0      6.53256
14632.0      6.61317
14634.0      6.51701
14636.0      6.19206
14638.0      5.93665
14640.0      5.94095
14642.0      5.93903
14644.0      5.91699
14646.0      6.10757
14648.0      6.20006
14650.0      6.07591
14652.0      5.91354
14654.0      5.71996
14656.0      5.51093
14658.0      5.40377
14660.0      5.29001
14662.0      5.05846
14664.0      4.99750
14666.0      5.27288
14668.0      5.56706
14670.0      5.60761
14672.0      5.64631
14674.0      5.76620
14676.0      5.82327
14678.0      5.83374
14680.0      5.73603
14682.0      5.62623
14684.0      5.80519
14686.0      6.00869
14688.0      5.90884
14690.0      5.62480
14692.0      5.44298
14694.0      5.28661
14696.0      5.02384
14698.0      4.92240
14700.0      4.91515
14702.0      4.78364
14704.0      4.69220
14706.0      4.50952
14708.0      4.23256
14710.0      4.21868
14712.0      4.42878
14714.0      4.46579
14716.0      4.30550
14718.0      4.39311
14720.0      4.56294
14722.0      4.70254
14724.0      4.97038
14726.0      5.28654
14728.0      5.46004
14730.0      5.53460
14732.0      5.63141
14734.0      5.74658
14736.0      5.99750
14738.0      6.36641
14740.0      6.53933
14742.0      6.45275
14744.0      6.25772
14746.0      6.34814
14748.0      6.44026
14750.0      6.45997
14752.0      6.54806
14754.0      6.44380
14756.0      6.27716
14758.0      6.25150
14760.0      6.18121
14762.0      5.92697
14764.0      5.66740
14766.0      5.44824
14768.0      5.38271
14770.0      5.48549
14772.0      5.69225
14774.0      5.87895
14776.0      5.94137
14778.0      5.77663
14780.0      5.57859
14782.0      5.65274
14784.0      5.78878
14786.0      5.80255
14788.0      5.58352
14790.0      5.36873
14792.0      5.41217
14794.0      5.67378
14796.0      5.90379
14798.0      5.99460
14800.0      5.88276
14802.0      5.62761
14804.0      5.59138
14806.0      5.46119
14808.0      5.50899
14810.0      5.72467
14812.0      5.83019
14814.0      5.85376
14816.0      5.95831
14818.0      6.04786
14820.0      6.23027
14822.0      6.45642
14824.0      6.47865
14826.0      6.39854
14828.0      6.15796
14830.0      6.08839
14832.0      6.31151
14834.0      6.46751
14836.0      6.57812
14838.0      6.60137
14840.0      6.55197
14842.0      6.52337
14844.0      6.48139
14846.0      6.47135
14848.0      6.56101
14850.0      6.43733
14852.0      6.24771
14854.0      6.17867
14856.0      6.08643
14858.0      6.20112
14860.0      6.32986
14862.0      6.34411
14864.0      6.18258
14866.0      6.10650
14868.0      6.12653
14870.0      6.18374
14872.0      6.12564
14874.0      6.08981
14876.0      6.16296
14878.0      6.18048
14880.0      6.25397
14882.0      6.32652
14884.0      6.36342
14886.0      6.52840
14888.0      6.65486
14890.0      6.75308
14892.0      6.83024
14894.0      7.00921
14896.0      7.09891
14898.0      7.02993
14900.0      6.94502
14902.0      7.01987
14904.0      7.04150
14906.0      7.03854
14908.0      7.02354
14910.0      7.09497
14912.0      7.22674
14914.0      7.26995
14916.0      7.24953
14918.0      7.21026
14920.0      7.21246
14922.0      7.19478
14924.0      7.09663
14926.0      7.02491
14928.0      7.12730
14930.0      7.30676
14932.0      7.31069
14934.0      7.26887
14936.0      7.24586
14938.0      7.25230
14940.0      7.25540
14942.0      7.20329
14944.0      7.22849
14946.0      7.24653
14948.0      7.19339
14950.0      7.06564
14952.0      7.03854
14954.0      7.10630
14956.0      7.21094
14958.0      7.25716
14960.0      7.24668
14962.0      7.26222
14964.0      7.26962
14966.0      7.27340
14968.0      7.30134
14970.0      7.29559
14972.0      7.37876
14974.0      7.42466
14976.0      7.38163
14978.0      7.41955
14980.0      7.53853
14982.0      7.53368
14984.0      7.51805
14986.0      7.51620
14988.0      7.51731
14990.0      7.53900
14992.0      7.51105
14994.0      7.55740
14996.0      7.66366
14998.0      7.67416
15000.0      7.67337
15002.0      7.64563
15004.0      7.63339
15006.0      7.69648
15008.0      7.71778
15010.0      7.70423
15012.0      7.71020
15014.0      7.71847
15016.0      7.68638
15018.0      7.66480
15020.0      7.61583
15022.0      7.58098
15024.0      7.48271
15026.0      7.45163
15028.0      7.42637
15030.0      7.38695
15032.0      7.32255
15034.0      7.34544
15036.0      7.37696
15038.0      7.38115
15040.0      7.27171
15042.0      7.21171
15044.0      7.24530
15046.0      7.27122
15048.0      7.31241
15050.0      7.37212
15052.0      7.47844
15054.0      7.51109
15056.0      7.51922
15058.0      7.53798
15060.0      7.60539
15062.0      7.73393
15064.0      7.76707
15066.0      7.69592
15068.0      7.61845
15070.0      7.63852
15072.0      7.72007
15074.0      7.65423
15076.0      7.61298
15078.0      7.61930
15080.0      7.62019
15082.0      7.59055
15084.0      7.62823
15086.0      7.69779
15088.0      7.71797
15090.0      7.70504
15092.0      7.70190
15094.0      7.68593
15096.0      7.71028
15098.0      7.75198
15100.0      7.81583
15102.0      7.87208
15104.0      7.96485
15106.0      8.01172
15108.0      7.98692
15110.0      7.97209
15112.0      7.94917
15114.0      7.95208
15116.0      7.97314
15118.0      7.97990
15120.0      7.95449
15122.0      7.92284
15124.0      7.90412
15126.0      7.90156
15128.0      7.91235
15130.0      7.91174
15132.0      7.90448
15134.0      7.91748
15136.0      7.91360
15138.0      7.93814
15140.0      7.95000
15142.0      7.96146
15144.0      7.94766
15146.0      7.92436
15148.0      7.90906
15150.0      7.91759
15152.0      7.90812
15154.0      7.92043
15156.0      7.92182
15158.0      7.91766
15160.0      7.87615
15162.0      7.88650
15164.0      7.89301
15166.0      7.88510
15168.0      7.88346
15170.0      7.88376
15172.0      7.83067
15174.0      7.80711
15176.0      7.78358
15178.0      7.78467
15180.0      7.74372
15182.0      7.74826
15184.0      7.76525
15186.0      7.76070
15188.0      7.74329
15190.0      7.75704
15192.0      7.77551
15194.0      7.77108
15196.0      7.77313
15198.0      7.78621
15200.0      7.76328
15202.0      7.79129
15204.0      7.81619
15206.0      7.84460
15208.0      7.86589
15210.0      7.89511
15212.0      7.88669
15214.0      7.86291
15216.0      7.87592
15218.0      7.88887
15220.0      7.89872
15222.0      7.87169
15224.0      7.78043
15226.0      7.63233
15228.0      7.53083
15230.0      7.47952
15232.0      7.48235
15234.0      7.49936
15236.0      7.49690
15238.0      7.48654
15240.0      7.48185
15242.0      7.47714
15244.0      7.45666
15246.0      7.43318
15248.0      7.43104
15250.0      7.44875
15252.0      7.45660
15254.0      7.50728
15256.0      7.62580
15258.0      7.72612
15260.0      7.78732
15262.0      7.84541
15264.0      7.86359
15266.0      7.86758
15268.0      7.88390
15270.0      7.88742
15272.0      7.88962
15274.0      7.90753
15276.0      7.94436
15278.0      7.94906
15280.0      7.93507
15282.0      7.92702
15284.0      7.92873
15286.0      7.92823
15288.0      7.92983
15290.0      7.91933
15292.0      7.88225
15294.0      7.84868
15296.0      7.84850
15298.0      7.82660
15300.0      7.81548
15302.0      7.82792
15304.0      7.85714
15306.0      7.86363
15308.0      7.85208
15310.0      7.84513
15312.0      7.83953
15314.0      7.79145
15316.0      7.66402
15318.0      7.50085
15320.0      7.47778
15322.0      7.47472
15324.0      7.47061
15326.0      7.45320
15328.0      7.44731
15330.0      7.45312
15332.0      7.47185
15334.0      7.46257
15336.0      7.46344
15338.0      7.45652
15340.0      7.45307
15342.0      7.45397
15344.0      7.47853
15346.0      7.57119
15348.0      7.74830
15350.0      7.80943
15352.0      7.80204
15354.0      7.79528
15356.0      7.77945
15358.0      7.78627
15360.0      7.75902
15362.0      7.72274
15364.0      7.71801
15366.0      7.71694
15368.0      7.71345
15370.0      7.72152
15372.0      7.72843
15374.0      7.71484
15376.0      7.68648
15378.0      7.72107
15380.0      7.72533
15382.0      7.71868
15384.0      7.71520
15386.0      7.73252
15388.0      7.72984
15390.0      7.75196
15392.0      7.77538
15394.0      7.78677
15396.0      7.77847
15398.0      7.77247
15400.0      7.78065
15402.0      7.79002
15404.0      7.78913
15406.0      7.80779
15408.0      7.79105
15410.0      7.76859
15412.0      7.74764
15414.0      7.73977
15416.0      7.63488
15418.0      7.56913
15420.0      7.55971
15422.0      7.54713
15424.0      7.54106
15426.0      7.54850
15428.0      7.55241
15430.0      7.54555
15432.0      7.53228
15434.0      7.52937
15436.0      7.53561
15438.0      7.53110
15440.0      7.53776
15442.0      7.56827
15444.0      7.58602
15446.0      7.63100
15448.0      7.70224
15450.0      7.71602
15452.0      7.73286
15454.0      7.75450
15456.0      7.75612
15458.0      7.76602
15460.0      7.76013
15462.0      7.75717
15464.0      7.75596
15466.0      7.74836
15468.0      7.75557
15470.0      7.74953
15472.0      7.72730
15474.0      7.70653
15476.0      7.72082
15478.0      7.75570
15480.0      7.76062
15482.0      7.75280
15484.0      7.76566
15486.0      7.72798
15488.0      7.72711
15490.0      7.71950
15492.0      7.71459
15494.0      7.70319
15496.0      7.67778
15498.0      7.66937
15500.0      7.66564
15502.0      7.65514
15504.0      7.66515
15506.0      7.65155
15508.0      7.62207
15510.0      7.60919
15512.0      7.61588
15514.0      7.58343
15516.0      7.59199
15518.0      7.59023
15520.0      7.61394
15522.0      7.64886
15524.0      7.66645
15526.0      7.70607
15528.0      7.69791
15530.0      7.67326
15532.0      7.68150
15534.0      7.68769
15536.0      7.69820
15538.0      7.71572
15540.0      7.72555
15542.0      7.71572
15544.0      7.71366
15546.0      7.70500
15548.0      7.70744
15550.0      7.69710
15552.0      7.67711
15554.0      7.67043
15556.0      7.65835
15558.0      7.66719
15560.0      7.70624
15562.0      7.70306
15564.0      7.71212
15566.0      7.71546
15568.0      7.71133
15570.0      7.71016
15572.0      7.71309
15574.0      7.70766
15576.0      7.71717
15578.0      7.74369
15580.0      9.17292
15582.0      10.4908
15584.0      10.4809
15586.0      10.4697
15588.0      10.4649
15590.0      10.4553
15592.0      10.4469
15594.0      10.4484
15596.0      10.4548
15598.0      10.4480
15600.0      10.4553
15602.0      10.4515
15604.0      10.4599
15606.0      10.4542
15608.0      10.4265
15610.0      9.70340
15612.0      7.88804
15614.0      7.69467
15616.0      7.68382
15618.0      7.65841
15620.0      7.66168
15622.0      7.66090
15624.0      7.66804
15626.0      7.66148
15628.0      7.62756
15630.0      7.61824
15632.0      7.61313
15634.0      7.60416
15636.0      7.58934
15638.0      7.60034
15640.0      7.50174
15642.0      7.49417
15644.0      7.44573
15646.0      7.43521
15648.0      7.49213
15650.0      7.49884
15652.0      7.48668
15654.0      7.47577
15656.0      7.46570
15658.0      7.49058
15660.0      7.51169
15662.0      7.50879
15664.0      7.48465
15666.0      7.48463
15668.0      7.47501
15670.0      7.49581
15672.0      7.49392
15674.0      7.49302
15676.0      7.46960
15678.0      7.42325
15680.0      7.38355
15682.0      7.38175
15684.0      7.36433
15686.0      7.31270
15688.0      7.30151
15690.0      7.26140
15692.0      7.22982
15694.0      7.21688
15696.0      7.19449
15698.0      7.15701
15700.0      7.14803
15702.0      7.13781
15704.0      7.11159
15706.0      7.09016
15708.0      7.07366
15710.0      7.06037
15712.0      7.03391
15714.0      6.98758
15716.0      6.97034
15718.0      6.93700
15720.0      6.91353
15722.0      6.90358
15724.0      6.89240
15726.0      6.90855
15728.0      6.91156
15730.0      6.91868
15732.0      6.95668
15734.0      6.98294
15736.0      7.00609
15738.0      7.06759
15740.0      7.13474
15742.0      7.19453
15744.0      7.23353
15746.0      7.29365
15748.0      7.32714
15750.0      7.32968
15752.0      7.35394
15754.0      7.35753
15756.0      7.37617
15758.0      7.36480
15760.0      7.37260
15762.0      7.34745
15764.0      7.35475
15766.0      7.33477
15768.0      7.32484
15770.0      7.25748
15772.0      7.20510
15774.0      7.19528
15776.0      7.19159
15778.0      7.19162
15780.0      7.20784
15782.0      7.22356
15784.0      7.23107
15786.0      7.23450
15788.0      7.23651
15790.0      7.22820
15792.0      7.24041
15794.0      7.22671
15796.0      7.24587
15798.0      7.24806
15800.0      7.25763
15802.0      7.29165
15804.0      7.27950
15806.0      7.29104
15808.0      7.27763
15810.0      7.29498
15812.0      7.32486
15814.0      7.29826
15816.0      7.24969
15818.0      8.12496
15820.0      8.99260
15822.0      8.99916
15824.0      9.02631
15826.0      9.02209
15828.0      9.03814
15830.0      9.18904
15832.0      9.27862
15834.0      9.17469
15836.0      9.16240
15838.0      9.17232
15840.0      9.18404
15842.0      9.17579
15844.0      9.19556
15846.0      9.29798
15848.0      8.72437
15850.0      7.74853
15852.0      7.58597
15854.0      7.56114
15856.0      7.54086
15858.0      7.55835
15860.0      7.48987
15862.0      7.32133
15864.0      7.42449
15866.0      7.47587
15868.0      7.48737
15870.0      7.47356
15872.0      7.48309
15874.0      7.47482
15876.0      7.47548
15878.0      7.47779
15880.0      7.48415
15882.0      7.48952
15884.0      7.52723
15886.0      7.55473
15888.0      7.53328
15890.0      7.51924
15892.0      7.50669
15894.0      7.49658
15896.0      7.51004
15898.0      7.49677
15900.0      7.50561
15902.0      7.49973
15904.0      7.49336
15906.0      7.52295
15908.0      7.53021
15910.0      7.53682
15912.0      7.52993
15914.0      7.51879
15916.0      7.51710
15918.0      7.54758
15920.0      7.55299
15922.0      7.57467
15924.0      7.60294
15926.0      7.59628
15928.0      7.59833
15930.0      7.62261
15932.0      7.63967
15934.0      7.65071
15936.0      7.62732
15938.0      7.61154
15940.0      7.61514
15942.0      7.60870
15944.0      7.62364
15946.0      7.62074
15948.0      7.61815
15950.0      7.61315
15952.0      7.60998
15954.0      7.57796
15956.0      7.51294
15958.0      7.41754
15960.0      7.37642
15962.0      7.34824
15964.0      7.37153
15966.0      7.35840
15968.0      7.34856
15970.0      7.33625
15972.0      7.32440
15974.0      7.31629
15976.0      7.29509
15978.0      7.26488
15980.0      7.24068
15982.0      7.22261
15984.0      7.20579
15986.0      7.22891
15988.0      7.30727
15990.0      7.31269
15992.0      7.26785
15994.0      7.17118
15996.0      7.12484
15998.0      7.07646
16000.0      7.03976
16002.0      7.01381
16004.0      6.97859
16006.0      6.95080
16008.0      6.94128
16010.0      6.92751
16012.0      6.90693
16014.0      6.85914
16016.0      6.71912
16018.0      6.66044
16020.0      6.64749
16022.0      6.65601
16024.0      6.69316
16026.0      6.71681
16028.0      6.74667
16030.0      6.75941
16032.0      6.77094
16034.0      6.80008
16036.0      6.81773
16038.0      6.83608
16040.0      6.86365
16042.0      6.89036
16044.0      6.93413
16046.0      7.07208
16048.0      7.15583
16050.0      7.19412
16052.0      7.19971
16054.0      7.21796
16056.0      7.22167
16058.0      7.21735
16060.0      7.21168
16062.0      7.20146
16064.0      7.12807
16066.0      7.05354
16068.0      7.04980
16070.0      7.01959
16072.0      7.03576
16074.0      7.02740
16076.0      7.00949
16078.0      7.01215
16080.0      6.98204
16082.0      6.97728
16084.0      6.96308
16086.0      6.95321
16088.0      6.95551
16090.0      6.94743
16092.0      6.95657
16094.0      6.99162
16096.0      7.08217
16098.0      7.08521
16100.0      7.09423
16102.0      7.09532
16104.0      7.04579
16106.0      7.04574
16108.0      7.03390
16110.0      7.05461
16112.0      7.00567
16114.0      6.84562
16116.0      6.82386
16118.0      6.83674
16120.0      6.87148
16122.0      6.88226
16124.0      6.89302
16126.0      6.89190
16128.0      6.89700
16130.0      6.92174
16132.0      6.93079
16134.0      6.95757
16136.0      6.97594
16138.0      6.98694
16140.0      6.99423
16142.0      7.03090
16144.0      7.22253
16146.0      7.32382
16148.0      7.31187
16150.0      7.29930
16152.0      7.30517
16154.0      7.31622
16156.0      7.33789
16158.0      7.34033
16160.0      7.33567
16162.0      7.29417
16164.0      7.27843
16166.0      7.27934
16168.0      7.28350
16170.0      7.28883
16172.0      7.28014
16174.0      7.25823
16176.0      7.26561
16178.0      7.26009
16180.0      7.20431
16182.0      7.19246
16184.0      7.20497
16186.0      7.18304
16188.0      7.15101
16190.0      7.15325
16192.0      7.16632
16194.0      7.18588
16196.0      7.17272
16198.0      7.17413
16200.0      7.17293
16202.0      7.17768
16204.0      7.18879
16206.0      7.17862
16208.0      7.17030
16210.0      7.22486
16212.0      7.25590
16214.0      7.24072
16216.0      7.25730
16218.0      7.27216
16220.0      7.09356
16222.0      6.95740
16224.0      6.95154
16226.0      6.95617
16228.0      6.94800
16230.0      6.94642
16232.0      6.94517
16234.0      6.94638
16236.0      6.96619
16238.0      6.96729
16240.0      6.96433
16242.0      6.96585
16244.0      6.95843
16246.0      6.94510
16248.0      6.93780
16250.0      7.07565
16252.0      7.26316
16254.0      7.29019
16256.0      7.29725
16258.0      7.30717
16260.0      7.30746
16262.0      7.32055
16264.0      7.31672
16266.0      7.30412
16268.0      7.28288
16270.0      7.29262
16272.0      7.31716
16274.0      7.31931
16276.0      7.31701
16278.0      7.32227
16280.0      7.33965
16282.0      7.33240
16284.0      7.33213
16286.0      7.32759
16288.0      7.31687
16290.0      7.30918
16292.0      7.29675
16294.0      7.29828
16296.0      7.29373
16298.0      7.29428
16300.0      7.29799
16302.0      7.31928
16304.0      7.32423
16306.0      7.31952
16308.0      7.32060
16310.0      7.30891
16312.0      7.30521
16314.0      7.29545
16316.0      7.27807
16318.0      7.28665
16320.0      7.28358
16322.0      7.28804
16324.0      7.27376
16326.0      7.25209
16328.0      7.24203
16330.0      7.23292
16332.0      7.20215
16334.0      7.12999
16336.0      7.09864
16338.0      7.04186
16340.0      7.02759
16342.0      7.03587
16344.0      7.04077
16346.0      7.03943
16348.0      7.03333
16350.0      7.01135
16352.0      7.01337
16354.0      7.01405
16356.0      7.01378
16358.0      7.01857
16360.0      6.99730
16362.0      6.98582
16364.0      7.00548
16366.0      7.03352
16368.0      7.09244
16370.0      7.09858
16372.0      7.07652
16374.0      7.09213
16376.0      7.09537
16378.0      7.09416
16380.0      7.11361
16382.0      7.11790
16384.0      7.11026
16386.0      7.09837
16388.0      7.05629
16390.0      7.05014
16392.0      7.06288
16394.0      7.05985
16396.0      7.06035
16398.0      7.04145
16400.0      7.02530
16402.0      7.01850
16404.0      7.00190
16406.0      6.99509
16408.0      6.98935
16410.0      6.98603
16412.0      6.95807
16414.0      6.92334
16416.0      6.93299
16418.0      6.97119
16420.0      6.99518
16422.0      6.99839
16424.0      6.98526
16426.0      6.88328
16428.0      6.84021
16430.0      6.87190
16432.0      6.91803
16434.0      6.90851
16436.0      6.90302
16438.0      6.87602
16440.0      6.83973
16442.0      6.84927
16444.0      6.87893
16446.0      6.88066
16448.0      6.87461
16450.0      6.87405
16452.0      6.85424
16454.0      6.81985
16456.0      6.87951
16458.0      6.94859
16460.0      6.96609
16462.0      6.95193
16464.0      6.92475
16466.0      6.87805
16468.0      6.86496
16470.0      6.90647
16472.0      6.90813
16474.0      6.89435
16476.0      6.88380
16478.0      6.87525
16480.0      6.87768
16482.0      6.89840
16484.0      6.94593
16486.0      6.95700
16488.0      6.97093
16490.0      6.94700
16492.0      6.88329
16494.0      6.87129
16496.0      6.91101
16498.0      6.94411
16500.0      6.93987
16502.0      6.94931
16504.0      6.95888
16506.0      6.96542
16508.0      6.98112
16510.0      6.98397
16512.0      6.97207
16514.0      6.96231
16516.0      6.95739
16518.0      6.96709
16520.0      6.95858
16522.0      6.93998
16524.0      6.97957
16526.0      6.98742
16528.0      6.99294
16530.0      7.00282
16532.0      7.00406
16534.0      7.01813
16536.0      7.04324
16538.0      7.05217
16540.0      7.05254
16542.0      7.05628
16544.0      7.06191
16546.0      7.05508
16548.0      7.03686
16550.0      7.02748
16552.0      7.05757
16554.0      7.06418
16556.0      7.04321
16558.0      7.03036
16560.0      7.02299
16562.0      7.01947
16564.0      7.01201
16566.0      6.99872
16568.0      6.98287
16570.0      6.98376
16572.0      7.00226
16574.0      7.01199
16576.0      7.01529
16578.0      7.01448
16580.0      7.03404
16582.0      7.03102
16584.0      7.02690
16586.0      7.04828
16588.0      7.07192
16590.0      7.06381
16592.0      7.07016
16594.0      7.07718
16596.0      7.06371
16598.0      7.06140
16600.0      7.06673
16602.0      7.05042
16604.0      7.04143
16606.0      7.02752
16608.0      7.03646
16610.0      7.04699
16612.0      7.05210
16614.0      7.05692
16616.0      7.05669
16618.0      7.06161
16620.0      7.06524
16622.0      7.06495
16624.0      7.05490
16626.0      7.06255
16628.0      7.06424
16630.0      7.05648
16632.0      7.05572
16634.0      7.04138
16636.0      7.02919
16638.0      6.97432
16640.0      6.89821
16642.0      6.84195
16644.0      6.79038
16646.0      6.75692
16648.0      6.71712
16650.0      6.70377
16652.0      6.70258
16654.0      6.71656
16656.0      6.70640
16658.0      6.69793
16660.0      6.69258
16662.0      6.68868
16664.0      6.68980
16666.0      6.70073
16668.0      6.74097
16670.0      6.79518
16672.0      6.80859
16674.0      6.73201
16676.0      6.66335
16678.0      6.89067
16680.0      7.05320
16682.0      7.05599
16684.0      7.04453
16686.0      7.05724
16688.0      7.07664
16690.0      7.10835
16692.0      7.13713
16694.0      7.17033
16696.0      7.20597
16698.0      7.21452
16700.0      7.21333
16702.0      7.23115
16704.0      7.31713
16706.0      7.47544
16708.0      7.36639
16710.0      7.15861
16712.0      7.15286
16714.0      7.17771
16716.0      7.14347
16718.0      7.07676
16720.0      7.06967
16722.0      7.02588
16724.0      6.99980
16726.0      6.95509
16728.0      6.92001
16730.0      6.91341
16732.0      6.92168
16734.0      6.92851
16736.0      6.89029
16738.0      6.85187
16740.0      6.83103
16742.0      6.83111
16744.0      6.80752
16746.0      6.80731
16748.0      6.86841
16750.0      6.87136
16752.0      6.86824
16754.0      6.87377
16756.0      6.87351
16758.0      6.88080
16760.0      6.86811
16762.0      6.83631
16764.0      6.80492
16766.0      6.81259
16768.0      6.83948
16770.0      6.84132
16772.0      6.83491
16774.0      6.83702
16776.0      6.83762
16778.0      6.82400
16780.0      6.81842
16782.0      6.81784
16784.0      6.81587
16786.0      6.81765
16788.0      6.80657
16790.0      6.82599
16792.0      6.83334
16794.0      6.85134
16796.0      6.85889
16798.0      6.86354
16800.0      6.86107
16802.0      6.85203
16804.0      6.84026
16806.0      6.83009
16808.0      6.82285
16810.0      6.80574
16812.0      6.79262
16814.0      6.78050
16816.0      6.77844
16818.0      6.78279
16820.0      6.79028
16822.0      6.82206
16824.0      6.84358
16826.0      6.82875
16828.0      6.80575
16830.0      6.79712
16832.0      6.80237
16834.0      6.81114
16836.0      6.81250
16838.0      6.81724
16840.0      6.82848
16842.0      6.83776
16844.0      6.85013
16846.0      6.84358
16848.0      6.83557
16850.0      6.82083
16852.0      6.80165
16854.0      6.77922
16856.0      6.75672
16858.0      6.79184
16860.0      6.79819
16862.0      6.79371
16864.0      6.79657
16866.0      6.80688
16868.0      6.81551
16870.0      6.82270
16872.0      6.82226
16874.0      6.82297
16876.0      6.82213
16878.0      6.83020
16880.0      6.82520
16882.0      6.83309
16884.0      6.84460
16886.0      6.83807
16888.0      6.72720
16890.0      6.62767
16892.0      6.62327
16894.0      6.61192
16896.0      6.61822
16898.0      6.62824
16900.0      6.61290
16902.0      6.61294
16904.0      6.61481
16906.0      6.61890
16908.0      6.61016
16910.0      6.61562
16912.0      6.61918
16914.0      6.61411
16916.0      6.61955
16918.0      6.71369
16920.0      6.83064
16922.0      6.85514
16924.0      6.85308
16926.0      6.84987
16928.0      6.81788
16930.0      6.80958
16932.0      6.80416
16934.0      6.80813
16936.0      6.83039
16938.0      6.90850
16940.0      6.82870
16942.0      6.80208
16944.0      6.81480
16946.0      6.82265
16948.0      6.82497
16950.0      6.82839
16952.0      6.82448
16954.0      6.82502
16956.0      6.80967
16958.0      6.79906
16960.0      6.80637
16962.0      6.81679
16964.0      6.80966
16966.0      6.78338
16968.0      6.70621
16970.0      6.75558
16972.0      6.81176
16974.0      6.79200
16976.0      6.78208
16978.0      6.76967
16980.0      6.75900
16982.0      6.75608
16984.0      6.76197
16986.0      6.77698
16988.0      6.76163
16990.0      6.78509
16992.0      6.72637
16994.0      6.54230
16996.0      6.46804
16998.0      6.47862
17000.0      6.47939
17002.0      6.47760
17004.0      6.48537
17006.0      6.48970
17008.0      6.49354
17010.0      6.49904
17012.0      6.52896
17014.0      6.56309
17016.0      6.55820
17018.0      6.58015
17020.0      6.57976
17022.0      6.58928
17024.0      6.77501
17026.0      6.90363
17028.0      6.90600
17030.0      6.89007
17032.0      6.88487
17034.0      6.88995
17036.0      6.89477
17038.0      6.89500
17040.0      6.90201
17042.0      6.89410
17044.0      6.84444
17046.0      6.77539
17048.0      6.77597
17050.0      6.77427
17052.0      6.76398
17054.0      6.74326
17056.0      6.74005
17058.0      6.73586
17060.0      6.72758
17062.0      6.78076
17064.0      6.75455
17066.0      6.73529
17068.0      6.72746
17070.0      6.67906
17072.0      6.64491
17074.0      6.63955
17076.0      6.70604
17078.0      6.71803
17080.0      6.71592
17082.0      6.70729
17084.0      6.69959
17086.0      6.72091
17088.0      6.72964
17090.0      6.73724
17092.0      6.69763
17094.0      6.71744
17096.0      6.73913
17098.0      6.75133
17100.0      6.78896
17102.0      6.83278
17104.0      6.86767
17106.0      6.88057
17108.0      6.78412
17110.0      6.69538
17112.0      6.67081
17114.0      6.63839
17116.0      6.60035
17118.0      6.56736
17120.0      6.56050
17122.0      6.55351
17124.0      6.53066
17126.0      6.49123
17128.0      6.44570
17130.0      6.42376
17132.0      6.43715
17134.0      6.41834
17136.0      6.38195
17138.0      6.44051
17140.0      6.54742
17142.0      6.57661
17144.0      6.59218
17146.0      6.59985
17148.0      6.61960
17150.0      6.61716
17152.0      6.62307
17154.0      6.62867
17156.0      6.66686
17158.0      6.70913
17160.0      6.71667
17162.0      6.70048
17164.0      6.72742
17166.0      6.73449
17168.0      6.73727
17170.0      6.74266
17172.0      6.74524
17174.0      6.76278
17176.0      6.79620
17178.0      6.79403
17180.0      6.79855
17182.0      6.80029
17184.0      6.79806
17186.0      6.78644
17188.0      6.80479
17190.0      6.82278
17192.0      6.84237
17194.0      6.78082
17196.0      6.69161
17198.0      6.63534
17200.0      6.59543
17202.0      6.59350
17204.0      6.59079
17206.0      6.59294
17208.0      6.58778
17210.0      6.58791
17212.0      6.58525
17214.0      6.57483
17216.0      6.58009
17218.0      6.51594
17220.0      6.42496
17222.0      6.37095
17224.0      6.38258
17226.0      6.40301
17228.0      6.43003
17230.0      6.42665
17232.0      6.40837
17234.0      6.39373
17236.0      6.36155
17238.0      6.36200
17240.0      6.37150
17242.0      6.38242
17244.0      6.37569
17246.0      6.35562
17248.0      6.36935
17250.0      6.43503
17252.0      6.48553
17254.0      6.48410
17256.0      6.49438
17258.0      6.52029
17260.0      6.53708
17262.0      6.53824
17264.0      6.54441
17266.0      6.58095
17268.0      6.57809
17270.0      6.55026
17272.0      6.51065
17274.0      6.49098
17276.0      6.50772
17278.0      6.51476
17280.0      6.51446
17282.0      6.51044
17284.0      6.51523
17286.0      6.54084
17288.0      6.55176
17290.0      6.57808
17292.0      6.65593
17294.0      6.64952
17296.0      6.62949
17298.0      6.61880
17300.0      6.64926
17302.0      6.64140
17304.0      6.59855
17306.0      6.54671
17308.0      6.47486
17310.0      6.46346
17312.0      6.46657
17314.0      6.50697
17316.0      6.52938
17318.0      6.51957
17320.0      6.51916
17322.0      6.49187
17324.0      6.49419
17326.0      6.49578
17328.0      6.49609
17330.0      6.48685
17332.0      6.49108
17334.0      6.54739
17336.0      6.58275
17338.0      6.64717
17340.0      6.63591
17342.0      6.62399
17344.0      6.55630
17346.0      6.48812
17348.0      6.49481
17350.0      6.45198
17352.0      6.39108
17354.0      6.36298
17356.0      6.36206
17358.0      6.37058
17360.0      6.37211
17362.0      6.37327
17364.0      6.37776
17366.0      6.38475
17368.0      6.41879
17370.0      6.44812
17372.0      6.41419
17374.0      6.42470
17376.0      6.45861
17378.0      6.44859
17380.0      6.44523
17382.0      6.45032
17384.0      6.45032
17386.0      6.44468
17388.0      6.43495
17390.0      6.43772
17392.0      6.44173
17394.0      6.43180
17396.0      6.34874
17398.0      6.27490
17400.0      6.20435
17402.0      6.23708
17404.0      6.26128
17406.0      6.26175
17408.0      6.26218
17410.0      6.29959
17412.0      6.33161
17414.0      6.35912
17416.0      6.35354
17418.0      6.33902
17420.0      6.34256
17422.0      6.33500
17424.0      6.32765
17426.0      6.36573
17428.0      6.37771
17430.0      6.36740
17432.0      6.36673
17434.0      6.28048
17436.0      6.23005
17438.0      6.21483
17440.0      6.18543
17442.0      6.17038
17444.0      6.18292
17446.0      6.17711
17448.0      6.20040
17450.0      6.11281
17452.0      6.00677
17454.0      5.89950
17456.0      5.80848
17458.0      5.80211
17460.0      5.83393
17462.0      5.84932
17464.0      5.91212
17466.0      5.98701
17468.0      6.00222
17470.0      6.00824
17472.0      6.01283
17474.0      6.01881
17476.0      6.01445
17478.0      6.01649
17480.0      6.06962
17482.0      6.18310
17484.0      6.29637
17486.0      6.39889
17488.0      6.44613
17490.0      6.43180
17492.0      6.41175
17494.0      6.40744
17496.0      6.37386
17498.0      6.28559
17500.0      6.19524
17502.0      6.16860
17504.0      6.16219
17506.0      6.16404
17508.0      6.16602
17510.0      6.16253
17512.0      6.15974
17514.0      6.17438
17516.0      6.17982
17518.0      6.19712
17520.0      6.24617
17522.0      6.29516
17524.0      6.29501
17526.0      6.32431
17528.0      6.38487
17530.0      6.47896
17532.0      6.51300
17534.0      6.44090
17536.0      6.34861
17538.0      6.31871
17540.0      6.30641
17542.0      6.30152
17544.0      6.27060
17546.0      6.25573
17548.0      6.24511
17550.0      6.19763
17552.0      6.08061
17554.0      6.05381
17556.0      6.04671
17558.0      5.94845
17560.0      5.89256
17562.0      5.88491
17564.0      5.92436
17566.0      6.02692
17568.0      6.06798
17570.0      6.08087
17572.0      6.09258
17574.0      6.10203
17576.0      6.11296
17578.0      6.11504
17580.0      6.13575
17582.0      6.23845
17584.0      6.29845
17586.0      6.28892
17588.0      6.36543
17590.0      6.44785
17592.0      6.44941
17594.0      6.36859
17596.0      6.33815
17598.0      6.33616
17600.0      6.34124
17602.0      6.33156
17604.0      6.32169
17606.0      6.30169
17608.0      6.24966
17610.0      6.19863
17612.0      6.18050
17614.0      6.11497
17616.0      6.06667
17618.0      6.05565
17620.0      6.04812
17622.0      6.05512
17624.0      6.12179
17626.0      6.17441
17628.0      6.18078
17630.0      6.18155
17632.0      6.16158
17634.0      6.25579
17636.0      5.87655
17638.0      2.29502
17640.0    -0.747273
17642.0    -0.955714
17644.0     -1.11630
17646.0     -1.11784
17648.0     -1.12203
17650.0     -1.12220
17652.0     -1.12373
17654.0     -1.15121
17656.0     -1.20789
17658.0     -1.19234
17660.0     -1.19950
17662.0     -1.19702
17664.0     -1.23401
17666.0     -1.47574
17668.0      1.53819
17670.0      5.20672
17672.0      5.89157
17674.0      6.12002
17676.0      6.22452
17678.0      6.23317
17680.0      6.20823
17682.0      6.12556
17684.0      6.08958
17686.0      6.15078
17688.0      6.13363
17690.0      6.04987
17692.0      5.98001
17694.0      5.97177
17696.0      5.99670
17698.0      6.02578
17700.0      6.02881
17702.0      6.03342
17704.0      6.04391
17706.0      6.05312
17708.0      6.05367
17710.0      6.05387
17712.0      6.11943
17714.0      6.16907
17716.0      6.18328
17718.0      6.19325
17720.0      6.24969
17722.0      6.29306
17724.0      6.19830
17726.0      6.11204
17728.0      6.03206
17730.0      6.00125
17732.0      5.98210
17734.0      5.96555
17736.0      5.94247
17738.0      5.93062
17740.0      5.93365
17742.0      5.89106
17744.0      5.81253
17746.0      5.66711
17748.0      5.56974
17750.0      5.52907
17752.0      5.54042
17754.0      5.63916
17756.0      5.72973
17758.0      5.80623
17760.0      5.84703
17762.0      5.84136
17764.0      5.83183
17766.0      5.81202
17768.0      5.74221
17770.0      5.66807
17772.0      5.51037
17774.0      5.43069
17776.0      5.49585
17778.0      5.59667
17780.0      5.63492
17782.0      5.63703
17784.0      5.65567
17786.0      5.65449
17788.0      5.63491
17790.0      5.63593
17792.0      5.63093
17794.0      5.58537
17796.0      5.39148
17798.0      5.30511
17800.0      5.31702
17802.0      5.43362
17804.0      5.60483
17806.0      5.67744
17808.0      5.70983
17810.0      5.70931
17812.0      5.72285
17814.0      5.73014
17816.0      5.72242
17818.0      5.71387
17820.0      5.71216
17822.0      5.71256
17824.0      5.73188
17826.0      5.84803
17828.0      5.95757
17830.0      5.89582
17832.0      5.65810
17834.0      5.47233
17836.0      5.42262
17838.0      5.39653
17840.0      5.34281
17842.0      5.20850
17844.0      5.03810
17846.0      4.97003
17848.0      4.94410
17850.0      4.91862
17852.0      4.90151
17854.0      4.80915
17856.0      4.69953
17858.0      4.72791
17860.0      4.77926
17862.0      5.16828
17864.0      6.42763
17866.0      8.63130
17868.0      9.28320
17870.0      9.31041
17872.0      9.32855
17874.0      9.45022
17876.0      9.54256
17878.0      9.58468
17880.0      9.63719
17882.0      9.65484
17884.0      9.70023
17886.0      9.82600
17888.0      9.79813
17890.0      9.75850
17892.0      9.55034
17894.0      8.93236
17896.0      6.88546
17898.0      5.44503
17900.0      5.39563
17902.0      5.42418
17904.0      5.40263
17906.0      5.28824
17908.0      5.20376
17910.0      5.09043
17912.0      4.95953
17914.0      4.92803
17916.0      4.91552
17918.0      4.83833
17920.0      4.77016
17922.0      4.73946
17924.0      4.69371
17926.0      4.67463
17928.0      4.73036
17930.0      4.76478
17932.0      4.75470
17934.0      4.78507
17936.0      4.72051
17938.0      4.69390
17940.0      4.73721
17942.0      4.83436
17944.0      4.80158
17946.0      4.69492
17948.0      4.73815
17950.0      4.88556
17952.0      4.87460
17954.0      4.82304
17956.0      4.83146
17958.0      4.85251
17960.0      4.86332
17962.0      4.87098
17964.0      4.76777
17966.0      4.73727
17968.0      4.84687
17970.0      4.90140
17972.0      4.92822
17974.0      4.99668
17976.0      5.14320
17978.0      5.11378
17980.0      4.91763
17982.0      4.73031
17984.0      4.73617
17986.0      4.67015
17988.0      4.40181
17990.0      4.21126
17992.0      4.06593
17994.0      3.83432
17996.0      3.66092
17998.0      3.51855
18000.0      3.28693
18002.0      3.09633
18004.0      2.94220
18006.0      2.62241
18008.0      2.48222
18010.0      2.50535
18012.0      2.52052
18014.0      2.68399
18016.0      2.81433
18018.0      2.90770
18020.0      2.93446
18022.0      2.90952
18024.0      3.02893
18026.0      3.34339
18028.0      3.51248
18030.0      3.63388
18032.0      3.79984
18034.0      3.92500
18036.0      4.18622
18038.0      4.35878
18040.0      4.30411
18042.0      4.28295
18044.0      4.12999
18046.0      3.85127
18048.0      3.61546
18050.0      3.53623
18052.0      3.52395
18054.0      3.60248
18056.0      3.50252
18058.0      3.29443
18060.0      3.12504
18062.0      2.98610
18064.0      2.92785
18066.0      2.91283
18068.0      2.88444
18070.0      2.93839
18072.0      3.07804
18074.0      3.10862
18076.0      3.29015
18078.0      3.60132
18080.0      3.86739
18082.0      4.02031
18084.0      4.06863
18086.0      4.04878
18088.0      4.02809
18090.0      4.00047
18092.0      3.93295
18094.0      3.69831
18096.0      3.36558
18098.0      3.19030
18100.0      3.23991
18102.0      3.22383
18104.0      3.02857
18106.0      2.88616
18108.0      2.75517
18110.0      2.53254
18112.0      2.23305
18114.0      1.95450
18116.0      1.85878
18118.0      1.93888
18120.0      2.03989
18122.0      2.19862
18124.0      2.47364
18126.0      2.81590
18128.0      3.05089
18130.0      3.08709
18132.0      2.98053
18134.0      3.06131
18136.0      3.18072
18138.0      3.06305
18140.0      2.92215
18142.0      2.94462
18144.0      3.05266
18146.0      3.01908
18148.0      2.91255
18150.0      2.95631
18152.0      2.92055
18154.0      2.70129
18156.0      2.46520
18158.0      2.34612
18160.0      2.32086
18162.0      2.38716
18164.0      2.54788
18166.0      2.60324
18168.0      2.57405
18170.0      2.57666
18172.0      2.62724
18174.0      2.73301
18176.0      2.88747
18178.0      3.02646
18180.0      3.00462
18182.0      2.88300
18184.0      2.82667
18186.0      2.72302
18188.0      2.49717
18190.0      2.21603
18192.0      1.88864
18194.0      1.62906
18196.0      1.48987
18198.0      1.41866
18200.0      1.42251
18202.0      1.40771
18204.0      1.22572
18206.0     0.955863
18208.0     0.757480
18210.0     0.583629
18212.0     0.490015
18214.0     0.579056
18216.0     0.832212
18218.0      1.14035
18220.0      1.44466
18222.0      1.78270
18224.0      2.09508
18226.0      2.31457
18228.0      2.59674
18230.0      2.86578
18232.0      2.96976
18234.0      3.09980
18236.0      3.29824
18238.0      3.42981
18240.0      3.54771
18242.0      3.62037
18244.0      3.53841
18246.0      3.28792
18248.0      2.99204
18250.0      2.70270
18252.0      2.40670
18254.0      2.19715
18256.0      2.07178
18258.0      1.97264
18260.0      1.84988
18262.0      1.81479
18264.0      1.80422
18266.0      1.64055
18268.0      1.47729
18270.0      1.32219
18272.0      1.20535
18274.0      1.16471
18276.0      1.20838
18278.0      1.33417
18280.0      1.45564
18282.0      1.49897
18284.0      1.40850
18286.0      1.25900
18288.0      1.07389
18290.0     0.949511
18292.0     0.850752
18294.0     0.727995
18296.0     0.670804
18298.0     0.667956
18300.0     0.694342
18302.0     0.791014
18304.0     0.910479
18306.0     0.994669
18308.0     0.942214
18310.0     0.820487
18312.0     0.736541
18314.0     0.761205
18316.0     0.814189
18318.0     0.905164
18320.0      1.00773
18322.0      1.11237
18324.0      1.21258
18326.0      1.30652
18328.0      1.35469
18330.0      1.33911
18332.0      1.24635
18334.0      1.12923
18336.0      1.00078
18338.0     0.940056
18340.0     0.943270
18342.0     0.941490
18344.0     0.897016
18346.0     0.838443
18348.0     0.737255
18350.0     0.574644
18352.0     0.421568
18354.0     0.323017
18356.0     0.238904
18358.0     0.167801
18360.0     0.144014
18362.0     0.119838
18364.0     0.108128
18366.0     0.108018
18368.0     0.107305
18370.0     0.103300
18372.0     0.134784
18374.0     0.209680
18376.0     0.272396
18378.0     0.308683
18380.0     0.318252
18382.0     0.309843
18384.0     0.282893
18386.0     0.261091
18388.0     0.251215
18390.0     0.254901
18392.0     0.296018
18394.0     0.351089
18396.0     0.371885
18398.0     0.370670
18400.0     0.356290
18402.0     0.317217
18404.0     0.246666
18406.0     0.170567
18408.0     0.131375
18410.0     0.121784
18412.0     0.155255
18414.0     0.223364
18416.0     0.320213
18418.0     0.381238
18420.0     0.410175
18422.0     0.441324
18424.0     0.434262
18426.0     0.474096
18428.0     0.625352
18430.0     0.828449
18432.0      1.01858
18434.0      1.21400
18436.0      1.41831
18438.0      1.58892
18440.0      1.71710
18442.0      1.76248
18444.0      1.76226
18446.0      1.68662
18448.0      1.62091
18450.0      1.59408
18452.0      1.54320
18454.0      1.49671
18456.0      1.45497
18458.0      1.31592
18460.0      1.12554
18462.0     0.937548
18464.0     0.736705
18466.0     0.545172
18468.0     0.371461
18470.0     0.212332
18472.0     0.130344
18474.0    0.0812704
18476.0    0.0568240
18478.0    0.0781846
18480.0     0.153834
18482.0     0.254007
18484.0     0.304100
18486.0     0.330472
18488.0     0.339743
18490.0     0.340418
18492.0     0.348342
18494.0     0.366240
18496.0     0.420365
18498.0     0.544462
18500.0     0.737376
18502.0     0.929930
18504.0      1.06219
18506.0      1.18635
18508.0      1.25744
18510.0      1.23325
18512.0      1.13809
18514.0      1.07395
18516.0      1.04503
18518.0      1.03150
18520.0      1.02750
18522.0      1.01813
18524.0     0.993822
18526.0     0.949003
18528.0     0.849906
18530.0     0.687778
18532.0     0.527011
18534.0     0.397683
18536.0     0.320345
18538.0     0.334441
18540.0     0.410981
18542.0     0.491778
18544.0     0.543950
18546.0     0.562718
18548.0     0.575505
18550.0     0.574415
18552.0     0.573948
18554.0     0.577647
18556.0     0.585871
18558.0     0.588112
18560.0     0.580408
18562.0     0.595712
18564.0     0.657889
18566.0     0.742900
18568.0     0.759489
18570.0     0.710048
18572.0     0.668688
18574.0     0.663126
18576.0     0.663308
18578.0     0.656651
18580.0     0.656055
18582.0     0.656795
18584.0     0.663458
18586.0     0.654148
18588.0     0.655273
18590.0     0.659152
18592.0     0.629531
18594.0     0.570787
18596.0     0.472591
18598.0     0.410443
18600.0     0.455771
18602.0     0.570682
18604.0     0.688254
18606.0     0.832362
18608.0      1.01927
18610.0      1.12200
18612.0      1.17124
18614.0      1.23451
18616.0      1.30556
18618.0      1.42349
18620.0      1.55120
18622.0      1.64773
18624.0      1.67149
18626.0      1.65626
18628.0      1.60204
18630.0      1.49675
18632.0      1.32449
18634.0      1.16261
18636.0      1.02123
18638.0     0.891385
18640.0     0.897201
18642.0      1.00180
18644.0      1.14783
18646.0      1.30499
18648.0      1.35945
18650.0      1.34123
18652.0      1.32953
18654.0      1.33130
18656.0      1.33460
18658.0      1.33224
18660.0      1.32736
18662.0      1.31571
18664.0      1.29268
18666.0      1.27197
18668.0      1.21609
18670.0      1.10640
18672.0     0.967763
18674.0     0.783949
18676.0     0.581980
18678.0     0.414545
18680.0     0.282595
18682.0     0.174879
18684.0     0.114054
18686.0    0.0967690
18688.0     0.102143
18690.0     0.104257
18692.0     0.100469
18694.0     0.107704
18696.0     0.105055
18698.0    0.0919466
18700.0    0.0720332
18702.0    0.0652181
18704.0    0.0619242
18706.0    0.0729731
18708.0    0.0878299
18710.0    0.0979371
18712.0    0.0967589
18714.0    0.0967596
18716.0    0.0819666
18718.0    0.0736638
18720.0    0.0738101
18722.0    0.0787130
18724.0    0.0743666
18726.0    0.0724294
18728.0    0.0953949
18730.0    0.0987954
18732.0     0.114382
18734.0     0.117240
18736.0    0.0903215
18738.0    0.0634877
18740.0    0.0513012
18742.0    0.0670021
18744.0    0.0760730
18746.0     0.100126
18748.0     0.119200
18750.0     0.126811
18752.0     0.129020
18754.0     0.129246
18756.0     0.127290
18758.0     0.115496
18760.0     0.129688
18762.0     0.174236
18764.0     0.218814
18766.0     0.243846
18768.0     0.290926
18770.0     0.406864
18772.0     0.569940
18774.0     0.731265
18776.0     0.884923
18778.0     0.945485
18780.0      1.03176
18782.0      1.23498
18784.0      1.47205
18786.0      1.62743
18788.0      1.68864
18790.0      1.70382
18792.0      1.68059
18794.0      1.62068
18796.0      1.61580
18798.0      1.62788
18800.0      1.55946
18802.0      1.47147
18804.0      1.44712
18806.0      1.49370
18808.0      1.63306
18810.0      1.71100
18812.0      1.66055
18814.0      1.60944
18816.0      1.58202
18818.0      1.61000
18820.0      1.62895
18822.0      1.61398
18824.0      1.60169
18826.0      1.57507
18828.0      1.54079
18830.0      1.55106
18832.0      1.58082
18834.0      1.55307
18836.0      1.47051
18838.0      1.32883
18840.0      1.17900
18842.0      1.11953
18844.0      1.11498
18846.0      1.13237
18848.0      1.15077
18850.0      1.15204
18852.0      1.13851
18854.0      1.15478
18856.0      1.26396
18858.0      1.38707
18860.0      1.55922
18862.0      1.75337
18864.0      1.89882
18866.0      2.02666
18868.0      2.16778
18870.0      2.31822
18872.0      2.44690
18874.0      2.51679
18876.0      2.52096
18878.0      2.47959
18880.0      2.44027
18882.0      2.43031
18884.0      2.42573
18886.0      2.34082
18888.0      2.22186
18890.0      2.04783
18892.0      1.84475
18894.0      1.70988
18896.0      1.57703
18898.0      1.39253
18900.0      1.24588
18902.0      1.12066
18904.0     0.931740
18906.0     0.739367
18908.0     0.581403
18910.0     0.541789
18912.0     0.562251
18914.0     0.593872
18916.0     0.665764
18918.0     0.716365
18920.0     0.728511
18922.0     0.705017
18924.0     0.640072
18926.0     0.588860
18928.0     0.656762
18930.0     0.726189
18932.0     0.771142
18934.0     0.926829
18936.0      1.15745
18938.0      1.44693
18940.0      1.68510
18942.0      1.80702
18944.0      1.91023
18946.0      2.03583
18948.0      2.08276
18950.0      2.18286
18952.0      2.38340
18954.0      2.54972
18956.0      2.65032
18958.0      2.58587
18960.0      2.45045
18962.0      2.35144
18964.0      2.22623
18966.0      2.04934
18968.0      1.83231
18970.0      1.59037
18972.0      1.41133
18974.0      1.28129
18976.0      1.11769
18978.0     0.989861
18980.0     0.881160
18982.0     0.698245
18984.0     0.509627
18986.0     0.333519
18988.0     0.231149
18990.0     0.214930
18992.0     0.205829
18994.0     0.204168
18996.0     0.220472
18998.0     0.220179
19000.0     0.231129
19002.0     0.307471
19004.0     0.416744
19006.0     0.496663
19008.0     0.526491
19010.0     0.532060
19012.0     0.528687
19014.0     0.526388
19016.0     0.530819
19018.0     0.547120
19020.0     0.576145
19022.0     0.658873
19024.0     0.767564
19026.0     0.837620
19028.0     0.839686
19030.0     0.803252
19032.0     0.732681
19034.0     0.597490
19036.0     0.499202
19038.0     0.455709
19040.0     0.453821
19042.0     0.449727
19044.0     0.453507
19046.0     0.445689
19048.0     0.438478
19050.0     0.405570
19052.0     0.341763
19054.0     0.230759
19056.0     0.131963
19058.0     0.109200
19060.0     0.211122
19062.0     0.344102
19064.0     0.521650
19066.0     0.696121
19068.0     0.846811
19070.0     0.978464
19072.0      1.01659
19074.0      1.03533
19076.0      1.15365
19078.0      1.34046
19080.0      1.50335
19082.0      1.61653
19084.0      1.75822
19086.0      1.88418
19088.0      1.88771
19090.0      1.78329
19092.0      1.68057
19094.0      1.58731
19096.0      1.45278
19098.0      1.31669
19100.0      1.15408
19102.0      1.08921
19104.0      1.09417
19106.0      1.07621
19108.0     0.964159
19110.0     0.829185
19112.0     0.739741
19114.0     0.658438
19116.0     0.539596
19118.0     0.459692
19120.0     0.454422
19122.0     0.431587
19124.0     0.356147
19126.0     0.309986
19128.0     0.290659
19130.0     0.313883
19132.0     0.325848
19134.0     0.361971
19136.0     0.441074
19138.0     0.539331
19140.0     0.653805
19142.0     0.728545
19144.0     0.708022
19146.0     0.683722
19148.0     0.672855
19150.0     0.674423
19152.0     0.699774
19154.0     0.749376
19156.0     0.812177
19158.0     0.967398
19160.0      1.20055
19162.0      1.44799
19164.0      1.63610
19166.0      1.79087
19168.0      1.90602
19170.0      1.96469
19172.0      2.05208
19174.0      2.18538
19176.0      2.29173
19178.0      2.35492
19180.0      2.37941
19182.0      2.36884
19184.0      2.31735
19186.0      2.27750
19188.0      2.16033
19190.0      1.92502
19192.0      1.66778
19194.0      1.43705
19196.0      1.18118
19198.0     0.949210
19200.0     0.755627
19202.0     0.632464
19204.0     0.638951
19206.0     0.692846
19208.0     0.873067
19210.0      1.10032
19212.0      1.27469
19214.0      1.51814
19216.0      1.77764
19218.0      1.98955
19220.0      2.15303
19222.0      2.20392
19224.0      2.20544
19226.0      2.21401
19228.0      2.17945
19230.0      2.17331
19232.0      2.20762
19234.0      2.24427
19236.0      2.30217
19238.0      2.46654
19240.0      2.53431
19242.0      2.58794
19244.0      2.53445
19246.0      2.44842
19248.0      2.42230
19250.0      2.40689
19252.0      2.39603
19254.0      2.40797
19256.0      2.42034
19258.0      2.44914
19260.0      2.47995
19262.0      2.51895
19264.0      2.48652
19266.0      2.37338
19268.0      2.02807
19270.0      1.67566
19272.0      1.42885
19274.0      1.29915
19276.0      1.31292
19278.0      1.30658
19280.0      1.32552
19282.0      1.44336
19284.0      1.56666
19286.0      1.59601
19288.0      1.61463
19290.0      1.66746
19292.0      1.65351
19294.0      1.51159
19296.0      1.39344
19298.0      1.39619
19300.0      1.48945
19302.0      1.56084
19304.0      1.59223
19306.0      1.66135
19308.0      1.74943
19310.0      1.76149
19312.0      1.63677
19314.0      1.56780
19316.0      1.71340
19318.0      1.96605
19320.0      2.12339
19322.0      2.14135
19324.0      2.13183
19326.0      2.17326
19328.0      2.22532
19330.0      2.27789
19332.0      2.44943
19334.0      2.69371
19336.0      2.83265
19338.0      2.86088
19340.0      2.81692
19342.0      2.85350
19344.0      2.97140
19346.0      2.93887
19348.0      2.73895
19350.0      2.50736
19352.0      2.46429
19354.0      2.63239
19356.0      2.79568
19358.0      2.87326
19360.0      2.98133
19362.0      2.90206
19364.0      2.64639
19366.0      2.40667
19368.0      2.25224
19370.0      2.23986
19372.0      2.22633
19374.0      2.08283
19376.0      1.94664
19378.0      1.90892
19380.0      1.91631
19382.0      1.85951
19384.0      1.78879
19386.0      1.81343
19388.0      1.87427
19390.0      1.88213
19392.0      1.83162
19394.0      1.85629
19396.0      1.94747
19398.0      1.89531
19400.0      1.76688
19402.0      1.72256
19404.0      1.85324
19406.0      2.10144
19408.0      2.37189
19410.0      2.65462
19412.0      2.89395
19414.0      3.11585
19416.0      3.19595
19418.0      3.16743
19420.0      3.01275
19422.0      2.97926
19424.0      3.09457
19426.0      3.13127
19428.0      3.15066
19430.0      3.18051
19432.0      3.09385
19434.0      2.99895
19436.0      2.89233
19438.0      2.76839
19440.0      2.66860
19442.0      2.60332
19444.0      2.52033
19446.0      2.41239
19448.0      2.39684
19450.0      2.57079
19452.0      2.75517
19454.0      2.73099
19456.0      2.67142
19458.0      2.69619
19460.0      2.76968
19462.0      2.96617
19464.0      3.07373
19466.0      3.03127
19468.0      2.98072
19470.0      2.92209
19472.0      2.93701
19474.0      2.97828
19476.0      2.94006
19478.0      2.86714
19480.0      2.80536
19482.0      2.72552
19484.0      2.69355
19486.0      2.80705
19488.0      2.85353
19490.0      2.87953
19492.0      2.80874
19494.0      2.81626
19496.0      2.92412
19498.0      3.07275
19500.0      3.18936
19502.0      3.20167
19504.0      3.15633
19506.0      3.17039
19508.0      3.23635
19510.0      3.21090
19512.0      3.21040
19514.0      3.21975
19516.0      3.05489
19518.0      2.92821
19520.0      2.87420
19522.0      2.90952
19524.0      2.89704
19526.0      2.77578
19528.0      2.60080
19530.0      2.45259
19532.0      2.42481
19534.0      2.35106
19536.0      2.29381
19538.0      2.20634
19540.0      2.12219
19542.0      2.04638
19544.0      1.97398
19546.0      1.98415
19548.0      2.00589
19550.0      1.98509
19552.0      1.91884
19554.0      1.84431
19556.0      1.82306
19558.0      1.90538
19560.0      1.94632
19562.0      1.83731
19564.0      1.76171
19566.0      1.74500
19568.0      1.77866
19570.0      1.86854
19572.0      1.87155
19574.0      1.82521
19576.0      1.79210
19578.0      1.78184
19580.0      1.84129
19582.0      1.96358
19584.0      2.03902
19586.0      2.19409
19588.0      2.34367
19590.0      2.41834
19592.0      2.52282
19594.0      2.56651
19596.0      2.68684
19598.0      2.78519
19600.0      2.86108
19602.0      3.01157
19604.0      3.06032
19606.0      3.17092
19608.0      3.35895
19610.0      3.38755
19612.0      3.28224
19614.0      3.27675
19616.0      3.19797
19618.0      3.00395
19620.0      2.91173
19622.0      2.85366
19624.0      2.87941
19626.0      2.86831
19628.0      2.78516
19630.0      2.66882
19632.0      2.59561
19634.0      2.64687
19636.0      2.65714
19638.0      2.57603
19640.0      2.63256
19642.0      2.71246
19644.0      2.66905
19646.0      2.72882
19648.0      2.89792
19650.0      2.92671
19652.0      2.97744
19654.0      3.10843
19656.0      3.12907
19658.0      3.17280
19660.0      3.33258
19662.0      3.36281
19664.0      3.24796
19666.0      3.27773
19668.0      3.39515
19670.0      3.35868
19672.0      3.37035
19674.0      3.54094
19676.0      3.56528
19678.0      3.47910
19680.0      3.57838
19682.0      3.70851
19684.0      3.71012
19686.0      3.77145
19688.0      3.86102
19690.0      3.87599
19692.0      3.85674
19694.0      3.92906
19696.0      4.00485
19698.0      3.94598
19700.0      3.88476
19702.0      3.90928
19704.0      3.87825
19706.0      3.80086
19708.0      3.84885
19710.0      3.92173
19712.0      3.90650
19714.0      3.88651
19716.0      3.90033
19718.0      3.92467
19720.0      3.97365
19722.0      4.00121
19724.0      4.01309
19726.0      3.95383
19728.0      3.96396
19730.0      4.08262
19732.0      4.22236
19734.0      4.31719
19736.0      4.40665
19738.0      4.46087
19740.0      4.45083
19742.0      4.40744
19744.0      4.38485
19746.0      4.40375
19748.0      4.41735
19750.0      4.43245
19752.0      4.48063
19754.0      4.58988
19756.0      4.76458
19758.0      4.80874
19760.0      4.82307
19762.0      4.82267
19764.0      4.80948
19766.0      4.81905
19768.0      4.91038
19770.0      4.95846
19772.0      4.99837
19774.0      5.07883
19776.0      5.11879
19778.0      5.12334
19780.0      5.02067
19782.0      4.82840
19784.0      4.70716
19786.0      4.55668
19788.0      4.46315
19790.0      4.41675
19792.0      4.43010
19794.0      4.44391
19796.0      4.44348
19798.0      4.43523
19800.0      4.43623
19802.0      4.44168
19804.0      4.45617
19806.0      4.48490
19808.0      4.50802
19810.0      4.56377
19812.0      4.71244
19814.0      4.82493
19816.0      4.90044
19818.0      5.04310
19820.0      5.17973
19822.0      5.25827
19824.0      5.23301
19826.0      5.21533
19828.0      5.21813
19830.0      5.22884
19832.0      5.23147
19834.0      5.19189
19836.0      5.10785
19838.0      5.07667
19840.0      5.10092
19842.0      5.15308
19844.0      5.20646
19846.0      5.26030
19848.0      5.26725
19850.0      5.24186
19852.0      5.09249
19854.0      4.91103
19856.0      4.82313
19858.0      4.79984
19860.0      4.78313
19862.0      4.77555
19864.0      4.77214
19866.0      4.80883
19868.0      4.82746
19870.0      4.82541
19872.0      4.80676
19874.0      4.79032
19876.0      4.77991
19878.0      4.77029
19880.0      4.74916
19882.0      4.77610
19884.0      4.84885
19886.0      4.85958
19888.0      4.84978
19890.0      4.78850
19892.0      4.73282
19894.0      4.72284
19896.0      4.75952
19898.0      4.78863
19900.0      4.81662
19902.0      4.83950
19904.0      4.84129
19906.0      4.83029
19908.0      4.82368
19910.0      4.83312
19912.0      4.88570
19914.0      4.96564
19916.0      5.09038
19918.0      5.16658
19920.0      5.22687
19922.0      5.28501
19924.0      5.26792
19926.0      5.18440
19928.0      5.14584
19930.0      5.10535
19932.0      5.03067
19934.0      5.03033
19936.0      5.01955
19938.0      4.99466
19940.0      4.92003
19942.0      4.87509
19944.0      4.83539
19946.0      4.80112
19948.0      4.75617
19950.0      4.67669
19952.0      4.58876
19954.0      4.52592
19956.0      4.53209
19958.0      4.49326
19960.0      4.41972
19962.0      4.32188
19964.0      4.17718
19966.0      3.98765
19968.0      3.86071
19970.0      3.79415
19972.0      3.69466
19974.0      3.56951
19976.0      3.46105
19978.0      3.32847
19980.0      3.20762
19982.0      3.12236
19984.0      3.03905
19986.0      2.91589
19988.0      2.81909
19990.0      2.68933
19992.0      2.59599
19994.0      2.50912
19996.0      2.45759
19998.0      2.36816
20000.0      2.28500
20002.0      2.21205
20004.0      2.11161
20006.0      2.03004
20008.0      1.91680
20010.0      1.81237
20012.0      1.74358
20014.0      1.62760
20016.0      1.58127
20018.0      1.52410
20020.0      1.47174
20022.0      1.40616
20024.0      1.36044
20026.0      1.38534
20028.0      1.35021
20030.0      1.32828
20032.0      1.30771
20034.0      1.27347
20036.0      1.25681
20038.0      1.25718
20040.0      1.23943
20042.0      1.23800
20044.0      1.27191
20046.0      1.23903
20048.0      1.24798
20050.0      1.28495
20052.0      1.29172
20054.0      1.37931
20056.0      1.39605
20058.0      1.40527
20060.0      1.51321
20062.0      1.53203
20064.0      1.57608
20066.0      1.68149
20068.0      1.78041
20070.0      1.88445
20072.0      2.00704
20074.0      2.17838
20076.0      2.36046
20078.0      2.41184
20080.0      2.44052
20082.0      2.55886
20084.0      2.54582
20086.0      2.50607
20088.0      2.59070
20090.0      2.58128
20092.0      2.51191
20094.0      2.54354
20096.0      2.54970
20098.0      2.45181
20100.0      2.39598
20102.0      2.39007
20104.0      2.26227
20106.0      2.07382
20108.0      2.05563
20110.0      2.07233
20112.0      1.95636
20114.0      1.90529
20116.0      1.99723
20118.0      1.95087
20120.0      1.85919
20122.0      1.92535
20124.0      1.97017
20126.0      1.87550
20128.0      1.86401
20130.0      1.97388
20132.0      1.96446
20134.0      1.88514
20136.0      1.95081
20138.0      2.00810
20140.0      1.96001
20142.0      1.95474
20144.0      2.04107
20146.0      2.04727
20148.0      2.01327
20150.0      2.04868
20152.0      2.07347
20154.0      2.06141
20156.0      2.06815
20158.0      2.11015
20160.0      2.14365
20162.0      2.15687
20164.0      2.15892
20166.0      2.19031
20168.0      2.23000
20170.0      2.26111
20172.0      2.27905
20174.0      2.26920
20176.0      2.31803
20178.0      2.39796
20180.0      2.42683
20182.0      2.44881
20184.0      2.50851
20186.0      2.61753
20188.0      2.67042
20190.0      2.66019
20192.0      2.67236
20194.0      2.78578
20196.0      2.86454
20198.0      2.81371
20200.0      2.84596
20202.0      3.00857
20204.0      3.11003
20206.0      3.06358
20208.0      3.08684
20210.0      3.22908
20212.0      3.31967
20214.0      3.29624
20216.0      3.27416
20218.0      3.35460
20220.0      3.48900
20222.0      3.49879
20224.0      3.48516
20226.0      3.58002
20228.0      3.73242
20230.0      3.75880
20232.0      3.69205
20234.0      3.73411
20236.0      3.85409
20238.0      3.91909
20240.0      3.88422
20242.0      3.89341
20244.0      4.00443
20246.0      4.12106
20248.0      4.14537
20250.0      4.11301
20252.0      4.16175
20254.0      4.26486
20256.0      4.31504
20258.0      4.31463
20260.0      4.33438
20262.0      4.01605
20264.0      3.98923
20266.0      3.96454
20268.0      3.93186
20270.0      3.94914
20272.0      3.99088
20274.0      4.02622
20276.0      4.03285
20278.0      4.01231
20280.0      4.07527
20282.0      4.14053
20284.0      4.14915
20286.0      4.12499
20288.0      4.12077
20290.0      4.16485
20292.0      4.48327
20294.0      4.69080
20296.0      4.72107
20298.0      4.79037
20300.0      4.84827
20302.0      4.88208
20304.0      4.89464
20306.0      4.89452
20308.0      4.93003
20310.0      4.94900
20312.0      4.93528
20314.0      4.92182
20316.0      4.90323
20318.0      4.91433
20320.0      4.91437
20322.0      4.86968
20324.0      4.84559
20326.0      4.85507
20328.0      4.85805
20330.0      4.86365
20332.0      4.85551
20334.0      4.84633
20336.0      4.83711
20338.0      4.84378
20340.0      4.83518
20342.0      4.83985
20344.0      4.84780
20346.0      4.90804
20348.0      4.96285
20350.0      4.97891
20352.0      5.00564
20354.0      5.05168
20356.0      5.04697
20358.0      5.05970
20360.0      5.06102
20362.0      5.06049
20364.0      5.06680
20366.0      5.06126
20368.0      5.05154
20370.0      5.05044
20372.0      5.03570
20374.0      5.04521
20376.0      5.02003
20378.0      4.97858
20380.0      4.96889
20382.0      4.95366
20384.0      4.91717
20386.0      4.88514
20388.0      4.84692
20390.0      4.82832
20392.0      4.82650
20394.0      4.78745
20396.0      4.74174
20398.0      4.75639
20400.0      4.76192
20402.0      4.76814
20404.0      4.76123
20406.0      4.76083
20408.0      4.76970
20410.0      4.74924
20412.0      4.75337
20414.0      4.77322
20416.0      4.78083
20418.0      4.80991
20420.0      4.81903
20422.0      4.79951
20424.0      4.80713
20426.0      4.83780
20428.0      4.83348
20430.0      4.80518
20432.0      4.79614
20434.0      4.79239
20436.0      4.78347
20438.0      4.76317
20440.0      4.77543
20442.0      4.76215
20444.0      4.75202
20446.0      4.77066
20448.0      4.78331
20450.0      4.77224
20452.0      4.74797
20454.0      4.74170
20456.0      4.73605
20458.0      4.70951
20460.0      4.70377
20462.0      4.66920
20464.0      4.64375
20466.0      4.60955
20468.0      4.57126
20470.0      4.54509
20472.0      4.47067
20474.0      4.44079
20476.0      4.38937
20478.0      4.28829
20480.0      4.25915
20482.0      4.23212
20484.0      4.18747
20486.0      4.12068
20488.0      4.06287
20490.0      4.03619
20492.0      3.99267
20494.0      3.92884
20496.0      3.90385
20498.0      3.84093
20500.0      3.76907
20502.0      3.77964
20504.0      3.71808
20506.0      3.67820
20508.0      3.67702
20510.0      3.58063
20512.0      3.55776
20514.0      3.53493
20516.0      3.47304
20518.0      3.50336
20520.0      3.46815
20522.0      3.37256
20524.0      3.40516
20526.0      3.33513
20528.0      3.26889
20530.0      3.30740
20532.0      3.24006
20534.0      3.17532
20536.0      3.20475
20538.0      3.16127
20540.0      3.15771
20542.0      3.18925
20544.0      3.14483
20546.0      3.08095
20548.0      3.11739
20550.0      3.07250
20552.0      3.08480
20554.0      3.11818
20556.0      3.13410
20558.0      3.15327
20560.0      3.15687
20562.0      3.17776
20564.0      3.19478
20566.0      3.20373
20568.0      3.25487
20570.0      3.28358
20572.0      3.27741
20574.0      3.32266
20576.0      3.44429
20578.0      3.45436
20580.0      3.51685
20582.0      3.62353
20584.0      3.65385
20586.0      3.71287
20588.0      3.83105
20590.0      3.92181
20592.0      3.94673
20594.0      4.01046
20596.0      4.10111
20598.0      4.10556
20600.0      4.11497
20602.0      4.16355
20604.0      4.16879
20606.0      4.12215
20608.0      4.10055
20610.0      4.08714
20612.0      4.03087
20614.0      3.95397
20616.0      3.89517
20618.0      3.85857
20620.0      3.75185
20622.0      3.65775
20624.0      3.68653
20626.0      3.66124
20628.0      3.51923
20630.0      3.50630
20632.0      3.55622
20634.0      3.45798
20636.0      3.39838
20638.0      3.47792
20640.0      3.46979
20642.0      3.36122
20644.0      3.40501
20646.0      3.45776
20648.0      3.37407
20650.0      3.33903
20652.0      3.43646
20654.0      3.46513
20656.0      3.40373
20658.0      3.42333
20660.0      3.48683
20662.0      3.44661
20664.0      3.38146
20666.0      3.44719
20668.0      3.47171
20670.0      3.42830
20672.0      3.43766
20674.0      3.47463
20676.0      3.48021
20678.0      3.45210
20680.0      3.49690
20682.0      3.50814
20684.0      3.49752
20686.0      3.47500
20688.0      3.45239
20690.0      3.47213
20692.0      3.46671
20694.0      3.50796
20696.0      3.57731
20698.0      3.60756
20700.0      3.61270
20702.0      3.63778
20704.0      3.67981
20706.0      3.70414
20708.0      3.78488
20710.0      3.86076
20712.0      3.86536
20714.0      3.86456
20716.0      3.90307
20718.0      3.99362
20720.0      4.00362
20722.0      3.98581
20724.0      4.01738
20726.0      4.01106
20728.0      3.96282
20730.0      3.96412
20732.0      3.99915
20734.0      3.96278
20736.0      3.92466
20738.0      3.91708
20740.0      3.92819
20742.0      3.89249
20744.0      3.89951
20746.0      3.90086
20748.0      3.99605
20750.0      4.03452
20752.0      4.08366
20754.0      4.15269
20756.0      4.22518
20758.0      4.27992
20760.0      4.28088
20762.0      4.27950
20764.0      4.40673
20766.0      4.49775
20768.0      4.47634
20770.0      4.46607
20772.0      4.53715
20774.0      4.55310
20776.0      4.57317
20778.0      4.51957
20780.0      4.51288
20782.0      4.57039
20784.0      4.53672
20786.0      4.46169
20788.0      4.42876
20790.0      4.46395
20792.0      4.49667
20794.0      4.45039
20796.0      4.36044
20798.0      4.38787
20800.0      4.38802
20802.0      4.34799
20804.0      4.42627
20806.0      4.44347
20808.0      4.36124
20810.0      4.36182
20812.0      4.33133
20814.0      4.31622
20816.0      4.38439
20818.0      4.37650
20820.0      4.37085
20822.0      4.30710
20824.0      4.26146
20826.0      4.30454
20828.0      4.32792
20830.0      4.18054
20832.0      4.08427
20834.0      3.96896
20836.0      3.86366
20838.0      3.76880
20840.0      3.68817
20842.0      3.56129
20844.0      3.48892
20846.0      3.39750
20848.0      3.33648
20850.0      3.22230
20852.0      3.11410
20854.0      3.11028
20856.0      3.05655
20858.0      2.88294
20860.0      2.84187
20862.0      2.87335
20864.0      2.85047
20866.0      2.80282
20868.0      2.84178
20870.0      2.77261
20872.0      2.74781
20874.0      2.71427
20876.0      2.49761
20878.0      2.45435
20880.0      2.31150
20882.0      2.23843
20884.0      2.13530
20886.0      1.98655
20888.0      1.91330
20890.0      1.90494
20892.0      1.79771
20894.0      1.68077
20896.0      1.63925
20898.0      1.52217
20900.0      1.46761
20902.0      1.42614
20904.0      1.37538
20906.0      1.34812
20908.0      1.34578
20910.0      1.31695
20912.0      1.22768
20914.0      1.18302
20916.0      1.21524
20918.0      1.13023
20920.0      1.03661
20922.0     0.937336
20924.0     0.954357
20926.0     0.888469
20928.0     0.811500
20930.0     0.756116
20932.0     0.642459
20934.0     0.589591
20936.0     0.565451
20938.0     0.534991
20940.0     0.539751
20942.0     0.607815
20944.0     0.645565
20946.0     0.653802
20948.0     0.598754
20950.0     0.596800
20952.0     0.588718
20954.0     0.579777
20956.0     0.505448
20958.0     0.548545
20960.0     0.576452
20962.0     0.558207
20964.0     0.535537
20966.0     0.504899
20968.0     0.526339
20970.0     0.473675
20972.0     0.346318
20974.0     0.322239
20976.0     0.304119
20978.0     0.247600
20980.0     0.242285
20982.0     0.277099
20984.0     0.290292
20986.0     0.323057
20988.0     0.284933
20990.0     0.161854
20992.0     0.247326
20994.0     0.277530
20996.0     0.134004
20998.0     0.186661
